* Measurement data measured by REW V5.31.3
* Source: Headset (DS by VECLAN.COM), MICROPHONE (Master Volume), L, volume: 0.720. Timing signal peak level -14.4 dBFS, measurement signal peak level -13.5 dBFS
* Format: 4M Log Swept Sine, 1 sweep at -28.3 dBFS using an acoustic timing reference
* Dated: Sep 12, 2024 12:16:35 PM
* REW Settings:
*  C-weighting compensation: Off
*  Target level: 85.0 dB
* Note: ; Fosi DS1 Delay -0.0694 ms (-24 mm, -0.94 in) using estimated IR delay relative to Acoustic reference played from SPEAKER L with no timing offset Clock adjustment: -25.9 ppm
* Measurement: L
* Smoothing: 1/24 octave
* Frequency Step: 1/48 octave
* Start Frequency: 1.000 Hz
*
* Freq(Hz), SPL(dB), Phase(degrees)
1.000000, 85.841, 132.2493
1.015000, 86.419, 131.2543
1.030000, 86.978, 130.2508
1.044000, 87.478, 129.3024
1.060000, 88.021, 128.2001
1.075000, 88.499, 127.1458
1.090000, 88.943, 126.0715
1.106000, 89.384, 124.9198
1.120000, 89.751, 123.9383
1.138000, 90.205, 122.7355
1.150000, 90.497, 121.9720
1.172000, 91.011, 120.6445
1.180000, 91.192, 120.1805
1.206000, 91.756, 118.7513
1.220000, 92.046, 118.0272
1.241000, 92.463, 116.9930
1.250000, 92.636, 116.5670
1.265000, 92.916, 115.8772
1.280000, 93.187, 115.2101
1.315000, 93.786, 113.7241
1.320000, 93.868, 113.5183
1.340000, 94.187, 112.7074
1.360000, 94.493, 111.9130
1.380000, 94.787, 111.0909
1.400000, 95.071, 110.2591
1.430000, 95.479, 109.0095
1.450000, 95.740, 108.1698
1.475000, 96.050, 107.1178
1.500000, 96.333, 106.0914
1.525000, 96.586, 105.1060
1.550000, 96.810, 104.1629
1.575000, 97.010, 103.2434
1.600000, 97.189, 102.3307
1.625000, 97.350, 101.4517
1.650000, 97.496, 100.6019
1.675000, 97.631, 99.7767
1.700000, 97.759, 98.9715
1.725000, 97.882, 98.1813
1.750000, 98.003, 97.4018
1.775000, 98.128, 96.6141
1.800000, 98.257, 95.8007
1.825000, 98.395, 94.9861
1.850000, 98.537, 94.1720
1.875000, 98.677, 93.3657
1.900000, 98.814, 92.5727
1.925000, 98.947, 91.7957
1.950000, 99.077, 91.0363
1.975000, 99.203, 90.2843
2.000000, 99.326, 89.5292
2.030000, 99.470, 88.6471
2.060000, 99.610, 87.7882
2.090000, 99.747, 86.9499
2.120000, 99.880, 86.1292
2.140000, 99.968, 85.5899
2.180000, 100.140, 84.5055
2.200000, 100.224, 83.9489
2.240000, 100.389, 82.8395
2.270000, 100.508, 82.0132
2.300000, 100.623, 81.1965
2.330000, 100.735, 80.3927
2.360000, 100.844, 79.6042
2.400000, 100.985, 78.5413
2.430000, 101.088, 77.7597
2.470000, 101.220, 76.7455
2.500000, 101.318, 76.0051
2.540000, 101.444, 75.0419
2.580000, 101.567, 74.0825
2.620000, 101.686, 73.0980
2.650000, 101.772, 72.3633
2.690000, 101.883, 71.3937
2.720000, 101.964, 70.6777
2.760000, 102.068, 69.7437
2.800000, 102.168, 68.7989
2.850000, 102.289, 67.6525
2.900000, 102.405, 66.5521
2.950000, 102.517, 65.4879
3.000000, 102.623, 64.4085
3.040000, 102.703, 63.5414
3.070000, 102.762, 62.8982
3.110000, 102.837, 62.0546
3.150000, 102.909, 61.2308
3.200000, 102.995, 60.2051
3.250000, 103.078, 59.2073
3.300000, 103.157, 58.2497
3.350000, 103.233, 57.3156
3.400000, 103.304, 56.3671
3.450000, 103.371, 55.4235
3.500000, 103.434, 54.5031
3.550000, 103.494, 53.6132
3.600000, 103.552, 52.7328
3.650000, 103.608, 51.8789
3.700000, 103.661, 51.0540
3.750000, 103.711, 50.2448
3.820000, 103.777, 49.1091
3.870000, 103.821, 48.3159
3.950000, 103.888, 47.1012
4.000000, 103.927, 46.3575
4.060000, 103.973, 45.4890
4.120000, 104.015, 44.6460
4.180000, 104.055, 43.8185
4.250000, 104.099, 42.8563
4.310000, 104.135, 42.0652
4.370000, 104.169, 41.3044
4.440000, 104.207, 40.4262
4.500000, 104.238, 39.6962
4.550000, 104.262, 39.1031
4.620000, 104.295, 38.2746
4.680000, 104.322, 37.5844
4.750000, 104.352, 36.8116
4.820000, 104.381, 36.0470
4.870000, 104.401, 35.5108
4.940000, 104.428, 34.7804
5.000000, 104.450, 34.1589
5.080000, 104.478, 33.3472
5.150000, 104.502, 32.6641
5.220000, 104.525, 31.9815
5.300000, 104.550, 31.2160
5.380000, 104.573, 30.4725
5.450000, 104.592, 29.8232
5.520000, 104.609, 29.1962
5.600000, 104.627, 28.4892
5.700000, 104.647, 27.6158
5.800000, 104.664, 26.7714
5.900000, 104.680, 25.9464
6.000000, 104.694, 25.1459
6.080000, 104.704, 24.5145
6.150000, 104.711, 23.9828
6.220000, 104.717, 23.4523
6.300000, 104.723, 22.8630
6.400000, 104.728, 22.1454
6.500000, 104.731, 21.4428
6.600000, 104.734, 20.7670
6.700000, 104.735, 20.1034
6.800000, 104.736, 19.4626
6.900000, 104.736, 18.8358
7.000000, 104.735, 18.2349
7.100000, 104.731, 17.6483
7.200000, 104.727, 17.0829
7.300000, 104.723, 16.5302
7.400000, 104.719, 15.9987
7.500000, 104.716, 15.4799
7.620000, 104.712, 14.8773
7.750000, 104.708, 14.2458
7.880000, 104.703, 13.6259
8.000000, 104.698, 13.0732
8.120000, 104.693, 12.5291
8.250000, 104.689, 11.9518
8.380000, 104.684, 11.3910
8.500000, 104.679, 10.8815
8.620000, 104.672, 10.3844
8.750000, 104.665, 9.8588
8.850000, 104.660, 9.4614
9.000000, 104.652, 8.8832
9.120000, 104.645, 8.4288
9.250000, 104.638, 7.9459
9.380000, 104.631, 7.4763
9.500000, 104.625, 7.0436
9.620000, 104.618, 6.6209
9.750000, 104.610, 6.1694
9.880000, 104.595, 5.7266
10.000000, 104.572, 5.3318
10.150000, 104.533, 4.8201
10.300000, 104.487, 4.3310
10.440000, 104.438, 3.8943
10.600000, 104.381, 3.4185
10.750000, 104.328, 2.9944
10.900000, 104.277, 2.5913
11.060000, 104.226, 2.1530
11.200000, 104.182, 1.7426
11.380000, 104.127, 1.2410
11.500000, 104.090, 0.9226
11.720000, 104.022, 0.3705
11.800000, 103.999, 0.1794
12.060000, 103.930, -0.4293
12.200000, 103.897, -0.7751
12.410000, 103.852, -1.2715
12.500000, 103.833, -1.4767
12.650000, 103.801, -1.8096
12.800000, 103.770, -2.1316
13.150000, 103.698, -2.8924
13.200000, 103.689, -3.0060
13.400000, 103.652, -3.4495
13.600000, 103.617, -3.8748
13.800000, 103.582, -4.2813
14.000000, 103.548, -4.6732
14.300000, 103.498, -5.2946
14.500000, 103.465, -5.6884
14.750000, 103.423, -6.1556
15.000000, 103.384, -6.5999
15.250000, 103.351, -7.0725
15.500000, 103.321, -7.5267
15.750000, 103.291, -7.9611
16.000000, 103.261, -8.3779
16.250000, 103.231, -8.8221
16.500000, 103.201, -9.2491
16.750000, 103.171, -9.6571
17.000000, 103.144, -10.0504
17.250000, 103.118, -10.4598
17.500000, 103.093, -10.8557
17.750000, 103.068, -11.2350
18.000000, 103.043, -11.6027
18.250000, 103.019, -11.9879
18.500000, 102.996, -12.3636
18.750000, 102.973, -12.7275
19.000000, 102.951, -13.0812
19.250000, 102.931, -13.4547
19.500000, 102.912, -13.8195
19.750000, 102.891, -14.1747
20.000000, 102.871, -14.5197
20.299999, 102.845, -14.9517
20.600000, 102.820, -15.3647
20.900000, 102.793, -15.7573
21.200001, 102.767, -16.1500
21.400000, 102.749, -16.4087
21.799999, 102.714, -16.9072
22.000000, 102.697, -17.1509
22.400000, 102.664, -17.6580
22.700001, 102.639, -18.0319
23.000000, 102.614, -18.4008
23.299999, 102.588, -18.7774
23.600000, 102.561, -19.1459
24.000000, 102.526, -19.6213
24.299999, 102.500, -19.9828
24.700001, 102.467, -20.4492
25.000000, 102.442, -20.7874
25.400000, 102.410, -21.2450
25.799999, 102.378, -21.6910
26.200001, 102.346, -22.1410
26.500000, 102.322, -22.4816
26.900000, 102.290, -22.9216
27.200001, 102.266, -23.2462
27.600000, 102.235, -23.6675
28.000000, 102.205, -24.0747
28.500000, 102.169, -24.5994
29.000000, 102.134, -25.1173
29.500000, 102.097, -25.6257
30.000000, 102.057, -26.1173
30.400000, 102.026, -26.5182
30.700001, 102.001, -26.8138
31.100000, 101.969, -27.2043
31.500000, 101.936, -27.5944
32.000000, 101.892, -28.0626
32.500000, 101.849, -28.5131
33.000000, 101.807, -28.9458
33.500000, 101.768, -29.4002
34.000000, 101.731, -29.8623
34.500000, 101.693, -30.3223
35.000000, 101.653, -30.7704
35.500000, 101.612, -31.2114
36.000000, 101.573, -31.6375
36.500000, 101.535, -32.0612
37.000000, 101.498, -32.4823
37.500000, 101.460, -32.9121
38.200001, 101.404, -33.4996
38.700001, 101.364, -33.9059
39.500000, 101.302, -34.5330
40.000000, 101.264, -34.9150
40.599998, 101.219, -35.3893
41.200001, 101.173, -35.8524
41.799999, 101.128, -36.3070
42.500000, 101.076, -36.8340
43.099998, 101.031, -37.2789
43.700001, 100.989, -37.7062
44.400002, 100.940, -38.2147
45.000000, 100.897, -38.6554
45.500000, 100.860, -39.0038
46.200001, 100.809, -39.4810
46.799999, 100.768, -39.9028
47.500000, 100.719, -40.3948
48.200001, 100.669, -40.8809
48.700001, 100.632, -41.2167
49.400002, 100.583, -41.6761
50.000000, 100.543, -42.0696
50.799999, 100.487, -42.5981
51.500000, 100.437, -43.0643
52.200001, 100.386, -43.5106
53.000000, 100.328, -43.9778
53.799999, 100.270, -44.4617
54.500000, 100.219, -44.8752
55.200001, 100.168, -45.2793
56.000000, 100.111, -45.7441
57.000000, 100.039, -46.3051
58.000000, 99.970, -46.9081
59.000000, 99.896, -47.5397
60.000000, 99.811, -48.0813
60.799999, 99.753, -48.4818
61.500000, 99.711, -48.8370
62.200001, 99.666, -49.2173
63.000000, 99.612, -49.6447
64.000000, 99.547, -50.0939
65.000000, 99.483, -50.6223
66.000000, 99.418, -51.1418
67.000000, 99.351, -51.6074
68.000000, 99.284, -52.1141
69.000000, 99.214, -52.5895
70.000000, 99.149, -53.0212
71.000000, 99.090, -53.5062
72.000000, 99.027, -54.0098
73.000000, 98.962, -54.4620
74.000000, 98.898, -54.9149
75.000000, 98.836, -55.3694
76.199997, 98.760, -55.9018
77.500000, 98.679, -56.4426
78.800003, 98.600, -56.9500
80.000000, 98.529, -57.4457
81.199997, 98.458, -57.9457
82.500000, 98.378, -58.4844
83.800003, 98.297, -58.9682
85.000000, 98.225, -59.4014
86.199997, 98.154, -59.8541
87.500000, 98.080, -60.2973
88.500000, 98.025, -60.6594
90.000000, 97.944, -61.2419
91.199997, 97.878, -61.7306
92.500000, 97.805, -62.1693
93.800003, 97.734, -62.5911
95.000000, 97.669, -63.0044
96.199997, 97.603, -63.3883
97.500000, 97.531, -63.7661
98.800003, 97.463, -64.1636
100.000000, 97.400, -64.5630
101.500000, 97.320, -65.0811
103.000000, 97.241, -65.5562
104.400002, 97.168, -65.9739
106.000000, 97.086, -66.4393
107.500000, 97.010, -66.8717
109.000000, 96.933, -67.2827
110.599998, 96.852, -67.7767
112.000000, 96.779, -68.1727
113.800003, 96.692, -68.6271
115.000000, 96.637, -68.9465
117.199997, 96.534, -69.5380
118.000000, 96.496, -69.7389
120.599998, 96.375, -70.4077
122.000000, 96.311, -70.7573
124.099998, 96.221, -71.2910
125.000000, 96.183, -71.5107
126.500000, 96.121, -71.7953
128.000000, 96.060, -72.1278
131.500000, 95.908, -72.9115
132.000000, 95.887, -73.0207
134.000000, 95.807, -73.4637
136.000000, 95.730, -73.9017
138.000000, 95.658, -74.2880
140.000000, 95.591, -74.6986
143.000000, 95.487, -75.3628
145.000000, 95.417, -75.8102
147.500000, 95.325, -76.3307
150.000000, 95.237, -76.7836
152.500000, 95.153, -77.2299
155.000000, 95.075, -77.6631
157.500000, 94.999, -78.1091
160.000000, 94.913, -78.5708
162.500000, 94.830, -78.9867
165.000000, 94.754, -79.3864
167.500000, 94.678, -79.7786
170.000000, 94.600, -80.1003
172.500000, 94.524, -80.4199
175.000000, 94.453, -80.7761
177.500000, 94.386, -81.1239
180.000000, 94.323, -81.4907
182.500000, 94.262, -81.8221
185.000000, 94.201, -82.1984
187.500000, 94.137, -82.5535
190.000000, 94.074, -82.9614
192.500000, 94.012, -83.3836
195.000000, 93.949, -83.6940
197.500000, 93.887, -83.9691
200.000000, 93.827, -84.2494
203.000000, 93.759, -84.6251
206.000000, 93.697, -84.9833
209.000000, 93.640, -85.3398
212.000000, 93.581, -85.7444
214.000000, 93.541, -86.0031
218.000000, 93.458, -86.4897
220.000000, 93.415, -86.7397
224.000000, 93.329, -87.2028
227.000000, 93.267, -87.5436
230.000000, 93.208, -87.8745
233.000000, 93.150, -88.1789
236.000000, 93.094, -88.4678
240.000000, 93.021, -88.8340
243.000000, 92.968, -89.1237
247.000000, 92.901, -89.5051
250.000000, 92.852, -89.7746
254.000000, 92.789, -90.1094
258.000000, 92.727, -90.4270
262.000000, 92.665, -90.7498
265.000000, 92.620, -90.9799
269.000000, 92.565, -91.2778
272.000000, 92.525, -91.4958
276.000000, 92.474, -91.7836
280.000000, 92.426, -92.0538
285.000000, 92.367, -92.3777
290.000000, 92.312, -92.6968
295.000000, 92.259, -92.9973
300.000000, 92.210, -93.2806
304.000000, 92.170, -93.5126
307.000000, 92.142, -93.6614
311.000000, 92.107, -93.8546
315.000000, 92.074, -94.0503
320.000000, 92.033, -94.2943
325.000000, 91.995, -94.5059
330.000000, 91.957, -94.7240
335.000000, 91.920, -94.9271
340.000000, 91.884, -95.1321
345.000000, 91.848, -95.3096
350.000000, 91.813, -95.4829
355.000000, 91.780, -95.6595
360.000000, 91.748, -95.8114
365.000000, 91.717, -95.9446
370.000000, 91.688, -96.0841
375.000000, 91.660, -96.2271
382.000000, 91.624, -96.3862
387.000000, 91.599, -96.4786
395.000000, 91.561, -96.6251
400.000000, 91.540, -96.7149
406.000000, 91.514, -96.8090
412.000000, 91.490, -96.8890
418.000000, 91.466, -96.9548
425.000000, 91.440, -97.0208
431.000000, 91.420, -97.0557
437.000000, 91.401, -97.1024
444.000000, 91.381, -97.1326
450.000000, 91.365, -97.1510
455.000000, 91.353, -97.1509
462.000000, 91.338, -97.1537
468.000000, 91.328, -97.1545
475.000000, 91.318, -97.1265
482.000000, 91.310, -97.0859
487.000000, 91.306, -97.0554
494.000000, 91.302, -96.9941
500.000000, 91.300, -96.9402
508.000000, 91.299, -96.8495
515.000000, 91.299, -96.7621
522.000000, 91.301, -96.6709
530.000000, 91.305, -96.5454
538.000000, 91.311, -96.4097
545.000000, 91.317, -96.2942
552.000000, 91.325, -96.1569
560.000000, 91.337, -95.9794
570.000000, 91.353, -95.7570
580.000000, 91.372, -95.5143
590.000000, 91.393, -95.2532
600.000000, 91.414, -95.0069
608.000000, 91.431, -94.7754
615.000000, 91.447, -94.5668
622.000000, 91.464, -94.3466
630.000000, 91.484, -94.1064
640.000000, 91.512, -93.7837
650.000000, 91.542, -93.4497
660.000000, 91.574, -93.1172
670.000000, 91.607, -92.7569
680.000000, 91.643, -92.3958
690.000000, 91.683, -92.0214
700.000000, 91.724, -91.6353
710.000000, 91.769, -91.2245
720.000000, 91.816, -90.8173
730.000000, 91.867, -90.3951
740.000000, 91.922, -89.9734
750.000000, 91.981, -89.5414
762.000000, 92.057, -89.0175
775.000000, 92.144, -88.4700
788.000000, 92.241, -87.9503
800.000000, 92.337, -87.5643
812.000000, 92.418, -87.3486
825.000000, 92.465, -87.0275
838.000000, 92.513, -86.3885
850.000000, 92.581, -85.7118
862.000000, 92.672, -85.0114
875.000000, 92.792, -84.3507
885.000000, 92.887, -83.9517
900.000000, 93.024, -83.4008
912.000000, 93.131, -82.9612
925.000000, 93.249, -82.5039
938.000000, 93.372, -82.0581
950.000000, 93.488, -81.6677
962.000000, 93.605, -81.3218
975.000000, 93.732, -80.9799
988.000000, 93.865, -80.6598
1000.000000, 93.989, -80.4135
1015.000000, 94.139, -80.1407
1030.000000, 94.281, -79.8938
1044.000000, 94.412, -79.6970
1060.000000, 94.558, -79.5110
1075.000000, 94.695, -79.3712
1090.000000, 94.836, -79.2731
1106.000000, 94.991, -79.2072
1120.000000, 95.125, -79.1782
1138.000000, 95.293, -79.1830
1150.000000, 95.401, -79.2108
1172.000000, 95.589, -79.2786
1180.000000, 95.655, -79.3187
1206.000000, 95.859, -79.4734
1220.000000, 95.965, -79.5605
1241.000000, 96.119, -79.7061
1250.000000, 96.181, -79.7668
1265.000000, 96.281, -79.8519
1280.000000, 96.375, -79.9454
1315.000000, 96.575, -80.1147
1320.000000, 96.602, -80.1335
1340.000000, 96.696, -80.1944
1360.000000, 96.764, -80.2145
1380.000000, 96.827, -80.2051
1400.000000, 96.899, -80.1558
1430.000000, 97.006, -80.0182
1450.000000, 97.073, -79.8765
1475.000000, 97.155, -79.6605
1500.000000, 97.235, -79.3910
1525.000000, 97.312, -79.0671
1550.000000, 97.384, -78.6920
1575.000000, 97.454, -78.2735
1600.000000, 97.527, -77.8061
1625.000000, 97.602, -77.3210
1650.000000, 97.680, -76.8033
1675.000000, 97.761, -76.2598
1700.000000, 97.844, -75.6924
1725.000000, 97.929, -75.1104
1750.000000, 98.018, -74.5139
1775.000000, 98.110, -73.9144
1800.000000, 98.205, -73.3015
1825.000000, 98.302, -72.6815
1850.000000, 98.401, -72.0629
1875.000000, 98.504, -71.4421
1900.000000, 98.610, -70.8306
1925.000000, 98.719, -70.2227
1950.000000, 98.831, -69.6244
1975.000000, 98.945, -69.0320
2000.000000, 99.061, -68.4532
2030.000000, 99.203, -67.7659
2060.000000, 99.349, -67.1036
2090.000000, 99.499, -66.4661
2120.000000, 99.654, -65.8591
2140.000000, 99.760, -65.4717
2180.000000, 99.975, -64.7452
2200.000000, 100.082, -64.4137
2240.000000, 100.293, -63.8010
2270.000000, 100.451, -63.3776
2300.000000, 100.610, -62.9850
2330.000000, 100.769, -62.6245
2360.000000, 100.929, -62.3108
2400.000000, 101.140, -61.9635
2430.000000, 101.298, -61.7510
2470.000000, 101.504, -61.5383
2500.000000, 101.655, -61.4280
2540.000000, 101.851, -61.3496
2580.000000, 102.040, -61.3478
2620.000000, 102.221, -61.4257
2650.000000, 102.350, -61.5286
2690.000000, 102.511, -61.7299
2720.000000, 102.623, -61.9233
2760.000000, 102.761, -62.2237
2800.000000, 102.882, -62.5706
2850.000000, 103.010, -63.0597
2900.000000, 103.110, -63.5887
2950.000000, 103.180, -64.1235
3000.000000, 103.218, -64.6194
3040.000000, 103.225, -64.9559
3070.000000, 103.218, -65.1462
3110.000000, 103.193, -65.2943
3150.000000, 103.157, -65.2776
3200.000000, 103.108, -64.9662
3250.000000, 103.084, -64.3298
3300.000000, 103.117, -63.5133
3350.000000, 103.216, -62.8360
3400.000000, 103.356, -62.5737
3450.000000, 103.489, -62.7949
3500.000000, 103.580, -63.3525
3550.000000, 103.612, -64.0331
3600.000000, 103.591, -64.6762
3650.000000, 103.529, -65.1882
3700.000000, 103.438, -65.5174
3750.000000, 103.329, -65.6635
3820.000000, 103.159, -65.5931
3870.000000, 103.031, -65.3730
3950.000000, 102.824, -64.7812
4000.000000, 102.696, -64.2893
4060.000000, 102.548, -63.6033
4120.000000, 102.403, -62.8519
4180.000000, 102.261, -62.0659
4250.000000, 102.093, -61.1199
4310.000000, 101.937, -60.2665
4370.000000, 101.766, -59.3527
4440.000000, 101.548, -58.1693
4500.000000, 101.354, -57.0242
4550.000000, 101.193, -55.9698
4620.000000, 100.974, -54.3458
4680.000000, 100.796, -52.8422
4750.000000, 100.601, -50.9861
4820.000000, 100.421, -49.0407
4870.000000, 100.301, -47.6118
4940.000000, 100.149, -45.5729
5000.000000, 100.030, -43.8293
5080.000000, 99.881, -41.5223
5150.000000, 99.756, -39.4951
5220.000000, 99.636, -37.4487
5300.000000, 99.506, -35.0818
5380.000000, 99.383, -32.6969
5450.000000, 99.284, -30.6020
5520.000000, 99.190, -28.5005
5600.000000, 99.085, -26.0874
5700.000000, 98.960, -23.0101
5800.000000, 98.844, -19.8516
5900.000000, 98.741, -16.6095
6000.000000, 98.656, -13.3218
6080.000000, 98.601, -10.6635
6150.000000, 98.563, -8.3217
6220.000000, 98.536, -5.9723
6300.000000, 98.515, -3.2726
6400.000000, 98.506, 0.1157
6500.000000, 98.518, 3.5325
6600.000000, 98.555, 6.9456
6700.000000, 98.622, 10.3420
6800.000000, 98.727, 13.7095
6900.000000, 98.889, 17.0082
7000.000000, 99.113, 20.2036
7100.000000, 99.388, 23.2423
7200.000000, 99.711, 26.0616
7300.000000, 100.086, 28.5524
7400.000000, 100.510, 30.5743
7500.000000, 100.979, 31.9749
7620.000000, 101.591, 32.6125
7750.000000, 102.249, 31.7275
7880.000000, 102.712, 29.0506
8000.000000, 102.876, 25.2073
8120.000000, 102.725, 20.6863
8250.000000, 102.179, 16.0231
8380.000000, 101.294, 12.5943
8500.000000, 100.278, 11.0857
8620.000000, 99.183, 11.2374
8750.000000, 97.993, 12.9229
8850.000000, 97.089, 15.0391
9000.000000, 95.769, 19.5930
9120.000000, 94.796, 24.2721
9250.000000, 93.846, 29.9725
9380.000000, 92.996, 36.0983
9500.000000, 92.289, 42.0487
9620.000000, 91.652, 48.2223
9750.000000, 91.039, 55.1027
9880.000000, 90.501, 62.1333
10000.000000, 90.062, 68.7253
10150.000000, 89.584, 77.0656
10300.000000, 89.180, 85.5003
10440.000000, 88.870, 93.4277
10600.000000, 88.594, 102.4877
10750.000000, 88.405, 110.9223
10900.000000, 88.282, 119.3041
11060.000000, 88.222, 128.1479
11200.000000, 88.227, 135.8104
11380.000000, 88.325, 145.6385
11500.000000, 88.466, 152.0203
11720.000000, 88.832, 163.0462
11800.000000, 88.998, 166.9087
12060.000000, 89.698, 178.7195
12200.000000, 90.184, -175.7294
12410.000000, 90.992, -169.1925
12500.000000, 91.335, -167.1759
12650.000000, 91.845, -164.8800
12800.000000, 92.217, -163.7693
13150.000000, 92.227, -163.4105
13200.000000, 92.119, -163.2821
13400.000000, 91.449, -161.6807
13600.000000, 90.532, -157.4804
13800.000000, 89.595, -150.1031
14000.000000, 88.903, -139.5470
14300.000000, 88.925, -120.3639
14500.000000, 89.778, -109.3271
14750.000000, 91.245, -101.6183
15000.000000, 92.446, -99.7678
15250.000000, 93.181, -100.6373
15500.000000, 93.615, -102.8907
15750.000000, 93.748, -106.8124
16000.000000, 93.321, -112.0519
16250.000000, 92.163, -116.5167
16500.000000, 90.396, -117.8088
16750.000000, 88.344, -114.8225
17000.000000, 86.315, -107.9330
17250.000000, 84.486, -98.1954
17500.000000, 82.927, -86.5781
17750.000000, 81.638, -73.7318
18000.000000, 80.598, -60.0623
18250.000000, 79.797, -45.8130
18500.000000, 79.241, -31.2560
18750.000000, 78.923, -16.7655
19000.000000, 78.811, -2.6703
19250.000000, 78.863, 10.8519
19500.000000, 79.078, 23.4782
19750.000000, 79.470, 34.1788
20000.000000, 79.840, 41.6297
20300.000000, 79.929, 45.8387
20600.000000, 79.241, 46.6075
20900.000000, 77.524, 47.9677
21200.000000, 75.045, 53.2227
21400.000000, 73.219, 58.7517
21800.000000, 69.428, 70.4085
22000.000000, 67.260, 75.2655
22400.000000, 61.655, 89.7574
22700.000000, 56.979, 105.2026
23000.000000, 52.038, 114.2854
23300.000000, 46.083, 120.3218
23600.000000, 39.269, 127.2786
24000.000000, 32.642, 147.4655
