* Measurement data measured by REW V5.31.3
* Source: ISO 11904-1 DF (711 Z) 10dB w/ EQ filters
* Format: 
* Dated: Aug 17, 2024 10:38:18 PM
* REW Settings:
*  C-weighting compensation: Off
*  Target level: 0.0 dB
* Note: Measurement imported from C:\Users\therollo9\Documents\SquigLink\data\ISO 11904-1 DF (711 Z) 10dB Target.txt Format: Comma/Tab/Space delimited data 480 values loaded, 20 Hz to 20,049 Hz log spaced  LS Q     Fc   105.0 Hz  Gain   6.60 dB Q  0.710 PK       Fc    2800 Hz  Gain  -1.80 dB  Q  1.000 HS Q     Fc    2500 Hz  Gain  -3.00 dB Q  0.420
* Measurement: Razan Tilt Target
* Smoothing: 1/48 octave
* Frequency Step: 96 ppo
* Start Frequency: 20.0 Hz
*
* Freq(Hz), SPL(dB)
20.299999, 13.100
20.447101, 13.099
20.595270, 13.097
20.744511, 13.095
20.894835, 13.092
21.046247, 13.090
21.198757, 13.088
21.352372, 13.085
21.507100, 13.082
21.662949, 13.080
21.819928, 13.077
21.978044, 13.074
22.137306, 13.071
22.297722, 13.067
22.459301, 13.064
22.622050, 13.060
22.785979, 13.056
22.951095, 13.052
23.117408, 13.048
23.284927, 13.044
23.453659, 13.039
23.623614, 13.034
23.794800, 13.029
23.967227, 13.024
24.140904, 13.019
24.315838, 13.013
24.492041, 13.008
24.669520, 13.002
24.848286, 12.996
25.028347, 12.989
25.209713, 12.983
25.392393, 12.976
25.576396, 12.969
25.761733, 12.963
25.948414, 12.956
26.136447, 12.949
26.325842, 12.941
26.516610, 12.934
26.708760, 12.926
26.902303, 12.919
27.097248, 12.911
27.293606, 12.903
27.491387, 12.895
27.690600, 12.887
27.891258, 12.878
28.093370, 12.870
28.296946, 12.861
28.501997, 12.853
28.708534, 12.844
28.916568, 12.835
29.126109, 12.826
29.337169, 12.817
29.549759, 12.807
29.763888, 12.798
29.979570, 12.788
30.196814, 12.779
30.415633, 12.769
30.636037, 12.759
30.858038, 12.749
31.081648, 12.738
31.306879, 12.728
31.533741, 12.718
31.762248, 12.707
31.992410, 12.696
32.224240, 12.686
32.457750, 12.675
32.692953, 12.664
32.929859, 12.653
33.168482, 12.642
33.408835, 12.631
33.650929, 12.620
33.894778, 12.609
34.140393, 12.597
34.387789, 12.585
34.636977, 12.574
34.887970, 12.562
35.140783, 12.551
35.395428, 12.539
35.651918, 12.527
35.910266, 12.515
36.170487, 12.503
36.432593, 12.491
36.696598, 12.479
36.962517, 12.466
37.230363, 12.454
37.500149, 12.442
37.771891, 12.430
38.045602, 12.418
38.321296, 12.406
38.598988, 12.393
38.878692, 12.381
39.160423, 12.368
39.444195, 12.355
39.730024, 12.343
40.017924, 12.330
40.307911, 12.318
40.599998, 12.305
40.894203, 12.293
41.190539, 12.280
41.489023, 12.268
41.789669, 12.255
42.092494, 12.242
42.397514, 12.229
42.704744, 12.216
43.014200, 12.203
43.325899, 12.190
43.639856, 12.177
43.956088, 12.163
44.274612, 12.150
44.595444, 12.137
44.918601, 12.123
45.244100, 12.110
45.571957, 12.096
45.902191, 12.083
46.234817, 12.069
46.569853, 12.055
46.907318, 12.041
47.247227, 12.027
47.589600, 12.013
47.934454, 11.998
48.281807, 11.983
48.631677, 11.969
48.984082, 11.953
49.339041, 11.938
49.696572, 11.922
50.056694, 11.906
50.419425, 11.890
50.784785, 11.874
51.152793, 11.858
51.523467, 11.842
51.896827, 11.826
52.272893, 11.809
52.651684, 11.792
53.033220, 11.774
53.417520, 11.757
53.804606, 11.739
54.194496, 11.720
54.587212, 11.702
54.982773, 11.682
55.381201, 11.663
55.782516, 11.643
56.186739, 11.623
56.593891, 11.603
57.003994, 11.582
57.417068, 11.560
57.833136, 11.538
58.252219, 11.516
58.674339, 11.494
59.099517, 11.471
59.527776, 11.448
59.959139, 11.425
60.393628, 11.401
60.831265, 11.377
61.272073, 11.352
61.716076, 11.326
62.163296, 11.301
62.613757, 11.275
63.067482, 11.248
63.524495, 11.221
63.984820, 11.193
64.448480, 11.165
64.915501, 11.136
65.385905, 11.107
65.859718, 11.077
66.336965, 11.047
66.817670, 11.016
67.301858, 10.985
67.789555, 10.953
68.280786, 10.920
68.775577, 10.887
69.273953, 10.854
69.775941, 10.820
70.281566, 10.785
70.790855, 10.749
71.303835, 10.714
71.820532, 10.678
72.340973, 10.641
72.865186, 10.603
73.393197, 10.565
73.925034, 10.526
74.460726, 10.487
75.000299, 10.447
75.543782, 10.407
76.091203, 10.366
76.642591, 10.325
77.197975, 10.282
77.757383, 10.240
78.320846, 10.197
78.888391, 10.154
79.460048, 10.110
80.035849, 10.065
80.615821, 10.020
81.199997, 9.974
81.788406, 9.928
82.381078, 9.881
82.978045, 9.834
83.579338, 9.786
84.184989, 9.738
84.795028, 9.690
85.409488, 9.640
86.028400, 9.591
86.651797, 9.540
87.279712, 9.490
87.912177, 9.439
88.549225, 9.388
89.190889, 9.336
89.837203, 9.284
90.488200, 9.231
91.143915, 9.178
91.804381, 9.125
92.469634, 9.071
93.139707, 9.017
93.814635, 8.962
94.494455, 8.906
95.179201, 8.851
95.868908, 8.795
96.563614, 8.738
97.263354, 8.682
97.968164, 8.626
98.678082, 8.569
99.393144, 8.512
100.113388, 8.454
100.838851, 8.397
101.569570, 8.340
102.305585, 8.283
103.046934, 8.226
103.793654, 8.168
104.545786, 8.111
105.303368, 8.053
106.066439, 7.995
106.835041, 7.936
107.609211, 7.878
108.388992, 7.820
109.174423, 7.762
109.965546, 7.704
110.762402, 7.646
111.565032, 7.588
112.373478, 7.530
113.187783, 7.472
114.007988, 7.415
114.834137, 7.357
115.666272, 7.300
116.504438, 7.242
117.348677, 7.184
118.199034, 7.127
119.055553, 7.070
119.918279, 7.013
120.787256, 6.956
121.662530, 6.900
122.544147, 6.844
123.432152, 6.788
124.326593, 6.732
125.227514, 6.676
126.134965, 6.621
127.048990, 6.565
127.969640, 6.510
128.896961, 6.455
129.831001, 6.400
130.771810, 6.346
131.719436, 6.292
132.673930, 6.238
133.635340, 6.185
134.603717, 6.133
135.579111, 6.081
136.561573, 6.029
137.551154, 5.978
138.547907, 5.927
139.551882, 5.877
140.563132, 5.827
141.581711, 5.777
142.607670, 5.728
143.641064, 5.680
144.681946, 5.632
145.730371, 5.584
146.786394, 5.538
147.850068, 5.491
148.921451, 5.446
150.000597, 5.401
151.087563, 5.356
152.182406, 5.311
153.285183, 5.268
154.395950, 5.225
155.514767, 5.182
156.641691, 5.140
157.776781, 5.099
158.920097, 5.058
160.071697, 5.018
161.231643, 4.978
162.399994, 4.938
163.576811, 4.899
164.762156, 4.861
165.956091, 4.823
167.158677, 4.785
168.369978, 4.748
169.590056, 4.712
170.818975, 4.676
172.056800, 4.640
173.303595, 4.605
174.559424, 4.570
175.824353, 4.536
177.098449, 4.503
178.381777, 4.469
179.674405, 4.436
180.976400, 4.404
182.287830, 4.373
183.608763, 4.341
184.939267, 4.310
186.279414, 4.280
187.629271, 4.249
188.988910, 4.220
190.358402, 4.190
191.737817, 4.161
193.127228, 4.133
194.526708, 4.105
195.936328, 4.077
197.356164, 4.050
198.786288, 4.024
200.226775, 3.998
201.677701, 3.972
203.139141, 3.947
204.611171, 3.922
206.093868, 3.898
207.587309, 3.873
209.091572, 3.849
210.606736, 3.826
212.132879, 3.803
213.670081, 3.780
215.218423, 3.757
216.777984, 3.735
218.348847, 3.714
219.931093, 3.693
221.524804, 3.673
223.130064, 3.653
224.746956, 3.634
226.375565, 3.614
228.015976, 3.595
229.668274, 3.576
231.332545, 3.558
233.008876, 3.541
234.697354, 3.523
236.398068, 3.506
238.111106, 3.490
239.836557, 3.473
241.574512, 3.457
243.325060, 3.442
245.088294, 3.426
246.864305, 3.411
248.653185, 3.397
250.455029, 3.383
252.269929, 3.369
254.097981, 3.355
255.939280, 3.341
257.793921, 3.328
259.662002, 3.314
261.543620, 3.301
263.438873, 3.288
265.347860, 3.275
267.270680, 3.263
269.207433, 3.250
271.158221, 3.238
273.123145, 3.225
275.102308, 3.214
277.095813, 3.202
279.103764, 3.190
281.126264, 3.178
283.163421, 3.166
285.215340, 3.155
287.282128, 3.144
289.363893, 3.133
291.460743, 3.122
293.572788, 3.111
295.700137, 3.101
297.842902, 3.090
300.001194, 3.080
302.175127, 3.069
304.364812, 3.059
306.570365, 3.048
308.791900, 3.038
311.029534, 3.028
313.283382, 3.019
315.553563, 3.009
317.840194, 3.000
320.143395, 2.990
322.463286, 2.981
324.799988, 2.971
327.153622, 2.961
329.524312, 2.952
331.912181, 2.943
334.317354, 2.934
336.739955, 2.925
339.180112, 2.916
341.637951, 2.907
344.113600, 2.899
346.607189, 2.890
349.118848, 2.882
351.648707, 2.873
354.196898, 2.865
356.763555, 2.856
359.348811, 2.848
361.952800, 2.839
364.575660, 2.831
367.217525, 2.822
369.878535, 2.814
372.558827, 2.805
375.258542, 2.796
377.977820, 2.788
380.716803, 2.779
383.475634, 2.770
386.254456, 2.762
389.053415, 2.753
391.872657, 2.743
394.712328, 2.734
397.572576, 2.725
400.453551, 2.715
403.355402, 2.706
406.278282, 2.696
409.222342, 2.687
412.187735, 2.677
415.174618, 2.667
418.183144, 2.657
421.213472, 2.647
424.265758, 2.636
427.340163, 2.626
430.436846, 2.615
433.555968, 2.604
436.697694, 2.592
439.862185, 2.581
443.049608, 2.569
446.260128, 2.558
449.493913, 2.546
452.751131, 2.534
456.031952, 2.522
459.336548, 2.510
462.665090, 2.497
466.017752, 2.485
469.394708, 2.473
472.796136, 2.460
476.222212, 2.447
479.673114, 2.433
483.149023, 2.420
486.650120, 2.406
490.176588, 2.392
493.728609, 2.378
497.306370, 2.364
500.910057, 2.349
504.539858, 2.334
508.195962, 2.319
511.878559, 2.303
515.587842, 2.287
519.324004, 2.271
523.087240, 2.254
526.877746, 2.238
530.695719, 2.222
534.541359, 2.205
538.414866, 2.188
542.316442, 2.171
546.246291, 2.153
550.204617, 2.136
554.191626, 2.119
558.207527, 2.102
562.252529, 2.085
566.326842, 2.068
570.430680, 2.051
574.564256, 2.034
578.727786, 2.017
582.921486, 2.000
587.145575, 1.982
591.400274, 1.965
595.685804, 1.948
600.002389, 1.931
604.350254, 1.913
608.729625, 1.895
613.140730, 1.878
617.583801, 1.859
622.059068, 1.841
626.566764, 1.821
631.107125, 1.802
635.680388, 1.781
640.286790, 1.760
644.926572, 1.739
649.599976, 1.717
654.307245, 1.695
659.048625, 1.673
663.824363, 1.650
668.634708, 1.627
673.479911, 1.604
678.360224, 1.580
683.275901, 1.557
688.227200, 1.533
693.214378, 1.509
698.237695, 1.485
703.297414, 1.462
708.393797, 1.439
713.527110, 1.415
718.697622, 1.392
723.905601, 1.369
729.151319, 1.346
734.435050, 1.324
739.757069, 1.302
745.117654, 1.280
750.517084, 1.259
755.955640, 1.239
761.433606, 1.219
766.951268, 1.200
772.508913, 1.181
778.106831, 1.164
783.745314, 1.148
789.424655, 1.133
795.145152, 1.121
800.907101, 1.110
806.710804, 1.101
812.556563, 1.094
818.444683, 1.090
824.375471, 1.086
830.349235, 1.085
836.366288, 1.084
842.426943, 1.083
848.531516, 1.084
854.680325, 1.085
860.873691, 1.087
867.111937, 1.090
873.395387, 1.093
879.724370, 1.097
886.099216, 1.102
892.520256, 1.107
898.987826, 1.112
905.502262, 1.116
912.063905, 1.122
918.673096, 1.128
925.330180, 1.135
932.035503, 1.142
938.789417, 1.149
945.592272, 1.157
952.444423, 1.166
959.346228, 1.175
966.298047, 1.185
973.300241, 1.196
980.353175, 1.207
987.457219, 1.217
994.612741, 1.228
1001.820115, 1.238
1009.079716, 1.248
1016.391924, 1.258
1023.757119, 1.268
1031.175685, 1.278
1038.648009, 1.289
1046.174480, 1.301
1053.755492, 1.313
1061.391439, 1.325
1069.082718, 1.338
1076.829733, 1.352
1084.632885, 1.365
1092.492582, 1.378
1100.409233, 1.390
1108.383252, 1.402
1116.415054, 1.413
1124.505058, 1.423
1132.653685, 1.433
1140.861361, 1.442
1149.128512, 1.450
1157.455571, 1.458
1165.842971, 1.465
1174.291150, 1.472
1182.800548, 1.478
1191.371608, 1.485
1200.004778, 1.491
1208.700507, 1.498
1217.459249, 1.506
1226.281461, 1.514
1235.167602, 1.523
1244.118136, 1.533
1253.133528, 1.544
1262.214251, 1.557
1271.360775, 1.571
1280.573580, 1.586
1289.853144, 1.603
1299.199951, 1.620
1308.614490, 1.638
1318.097250, 1.656
1327.648726, 1.676
1337.269416, 1.696
1346.959821, 1.717
1356.720447, 1.739
1366.551803, 1.761
1376.454400, 1.784
1386.428756, 1.808
1396.475391, 1.832
1406.594827, 1.857
1416.787593, 1.882
1427.054220, 1.908
1437.395243, 1.934
1447.811202, 1.961
1458.302638, 1.989
1468.870100, 2.017
1479.514139, 2.046
1490.235308, 2.076
1501.034167, 2.106
1511.911280, 2.137
1522.867212, 2.169
1533.902536, 2.202
1545.017826, 2.236
1556.213662, 2.271
1567.490628, 2.306
1578.849311, 2.343
1590.290304, 2.381
1601.814203, 2.420
1613.421609, 2.462
1625.113127, 2.505
1636.889367, 2.550
1648.750942, 2.596
1660.698471, 2.643
1672.732576, 2.691
1684.853886, 2.740
1697.063032, 2.790
1709.360650, 2.841
1721.747382, 2.893
1734.223873, 2.946
1746.790774, 3.000
1759.448740, 3.056
1772.198431, 3.114
1785.040512, 3.172
1797.975651, 3.232
1811.004524, 3.294
1824.127809, 3.357
1837.346191, 3.421
1850.660359, 3.487
1864.071007, 3.554
1877.578834, 3.622
1891.184544, 3.693
1904.888847, 3.765
1918.692457, 3.838
1932.596093, 3.914
1946.600481, 3.990
1960.706351, 4.069
1974.914437, 4.150
1989.225481, 4.232
2003.640229, 4.317
2018.159432, 4.404
2032.783847, 4.492
2047.514237, 4.582
2062.351369, 4.675
2077.296017, 4.769
2092.348961, 4.866
2107.510984, 4.963
2122.782877, 5.061
2138.165437, 5.160
2153.659465, 5.259
2169.265769, 5.358
2184.985163, 5.457
2200.818466, 5.553
2216.766504, 5.647
2232.830108, 5.739
2249.010116, 5.828
2265.307370, 5.913
2281.722721, 5.994
2298.257024, 6.071
2314.911142, 6.144
2331.685943, 6.214
2348.582300, 6.280
2365.601096, 6.342
2382.743216, 6.401
2400.009556, 6.458
2417.401014, 6.512
2434.918499, 6.563
2452.562922, 6.611
2470.335204, 6.655
2488.236271, 6.696
2506.267057, 6.732
2524.428501, 6.764
2542.721551, 6.793
2561.147159, 6.819
2579.706287, 6.842
2598.399902, 6.864
2617.228979, 6.884
2636.194499, 6.902
2655.297451, 6.919
2674.538831, 6.934
2693.919642, 6.948
2713.440894, 6.959
2733.103606, 6.969
2752.908801, 6.976
2772.857513, 6.981
2792.950781, 6.984
2813.189654, 6.983
2833.575186, 6.980
2854.108440, 6.975
2874.790486, 6.966
2895.622403, 6.955
2916.605277, 6.941
2937.740201, 6.923
2959.028277, 6.903
2980.470616, 6.880
3002.068335, 6.854
3023.822559, 6.826
3045.734424, 6.794
3067.805071, 6.761
3090.035651, 6.726
3112.427324, 6.690
3134.981255, 6.653
3157.698621, 6.617
3180.580607, 6.580
3203.628406, 6.544
3226.843218, 6.507
3250.226254, 6.468
3273.778733, 6.427
3297.501883, 6.384
3321.396941, 6.339
3345.465153, 6.291
3369.707772, 6.241
3394.126064, 6.189
3418.721300, 6.135
3443.494764, 6.078
3468.447747, 6.020
3493.581549, 5.961
3518.897481, 5.900
3544.396863, 5.837
3570.081023, 5.773
3595.951302, 5.708
3622.009048, 5.641
3648.255618, 5.574
3674.692382, 5.506
3701.320718, 5.437
3728.142014, 5.367
3755.157668, 5.297
3782.369088, 5.226
3809.777694, 5.155
3837.384913, 5.084
3865.192186, 5.013
3893.200962, 4.942
3921.412701, 4.871
3949.828874, 4.800
3978.450962, 4.728
4007.280458, 4.656
4036.318864, 4.582
4065.567695, 4.509
4095.028474, 4.434
4124.702738, 4.359
4154.592035, 4.282
4184.697921, 4.204
4215.021967, 4.125
4245.565754, 4.045
4276.330874, 3.963
4307.318930, 3.879
4338.531539, 3.793
4369.970327, 3.705
4401.636933, 3.615
4433.533009, 3.524
4465.660216, 3.431
4498.020231, 3.337
4530.614740, 3.243
4563.445442, 3.149
4596.514049, 3.055
4629.822284, 2.962
4663.371885, 2.871
4697.164600, 2.780
4731.202191, 2.690
4765.486433, 2.601
4800.019112, 2.514
4834.802029, 2.428
4869.836997, 2.345
4905.125844, 2.264
4940.670408, 2.186
4976.472542, 2.110
5012.534114, 2.038
5048.857002, 1.969
5085.443101, 1.904
5122.294318, 1.843
5159.412574, 1.785
5196.799805, 1.732
5234.457958, 1.683
5272.388998, 1.637
5310.594903, 1.594
5349.077662, 1.555
5387.839284, 1.517
5426.881789, 1.483
5466.207211, 1.450
5505.817602, 1.418
5545.715026, 1.388
5585.901563, 1.360
5626.379308, 1.332
5667.150372, 1.305
5708.216880, 1.279
5749.580972, 1.253
5791.244806, 1.229
5833.210553, 1.206
5875.480402, 1.184
5918.056555, 1.162
5960.941232, 1.142
6004.136669, 1.122
6047.645119, 1.104
6091.468848, 1.088
6135.610143, 1.073
6180.071303, 1.059
6224.854647, 1.047
6269.962510, 1.035
6315.397243, 1.024
6361.161215, 1.014
6407.256811, 1.006
6453.686435, 0.998
6500.452508, 0.992
6547.557466, 0.988
6595.003766, 0.986
6642.793882, 0.985
6690.930305, 0.985
6739.415544, 0.988
6788.252128, 0.991
6837.442601, 0.996
6886.989528, 1.000
6936.895493, 1.006
6987.163098, 1.011
7037.794962, 1.016
7088.793725, 1.020
7140.162047, 1.023
7191.902604, 1.024
7244.018095, 1.022
7296.511237, 1.019
7349.384765, 1.012
7402.641436, 1.001
7456.284028, 0.985
7510.315335, 0.965
7564.738176, 0.940
7619.555387, 0.909
7674.769827, 0.872
7730.384373, 0.830
7786.401924, 0.781
7842.825403, 0.726
7899.657748, 0.666
7956.901925, 0.599
8014.560916, 0.526
8072.637728, 0.448
8131.135389, 0.362
8190.056948, 0.270
8249.405477, 0.170
8309.184070, 0.064
8369.395843, -0.050
8430.043935, -0.171
8491.131508, -0.300
8552.661747, -0.436
8614.637860, -0.577
8677.063077, -0.723
8739.940653, -0.872
8803.273866, -1.024
8867.066017, -1.177
8931.320433, -1.327
8996.040462, -1.474
9061.229480, -1.616
9126.890884, -1.749
9193.028098, -1.872
9259.644569, -1.984
9326.743770, -2.084
9394.329201, -2.170
9462.404382, -2.240
9530.972865, -2.296
9600.038224, -2.335
9669.604058, -2.358
9739.673995, -2.364
9810.251688, -2.354
9881.340815, -2.327
9952.945084, -2.283
10025.068227, -2.219
10097.714004, -2.139
10170.886202, -2.044
10244.588636, -1.934
10318.825149, -1.813
10393.599609, -1.686
10468.915917, -1.560
10544.777997, -1.441
10621.189805, -1.335
10698.155325, -1.251
10775.678568, -1.193
10853.763577, -1.168
10932.414422, -1.176
11011.635204, -1.219
11091.430052, -1.294
11171.803126, -1.402
11252.758617, -1.542
11334.300744, -1.704
11416.433760, -1.886
11499.161945, -2.090
11582.489613, -2.310
11666.421107, -2.539
11750.960803, -2.774
11836.113109, -3.014
11921.882464, -3.254
12008.273339, -3.491
12095.290238, -3.720
12182.937697, -3.933
12271.220285, -4.126
12360.142606, -4.306
12449.709294, -4.470
12539.925020, -4.611
12630.794486, -4.735
12722.322430, -4.844
12814.513622, -4.934
12907.372870, -5.013
13000.905015, -5.086
13095.114932, -5.157
13190.007533, -5.224
13285.587765, -5.287
13381.860610, -5.351
13478.831089, -5.417
13576.504255, -5.487
13674.885201, -5.564
13773.979057, -5.649
13873.790987, -5.742
13974.326195, -5.845
14075.589924, -5.957
14177.587451, -6.077
14280.324094, -6.202
14383.805209, -6.334
14488.036190, -6.471
14593.022473, -6.613
14698.769529, -6.755
14805.282873, -6.896
14912.568055, -7.034
15020.630671, -7.166
15129.476353, -7.289
15239.110775, -7.402
15349.539654, -7.502
15460.768745, -7.587
15572.803849, -7.656
15685.650805, -7.704
15799.315497, -7.727
15913.803850, -7.723
16029.121833, -7.689
16145.275457, -7.625
16262.270778, -7.535
16380.113896, -7.423
16498.810954, -7.294
16618.368139, -7.155
16738.791685, -7.009
16860.087870, -6.859
16982.263017, -6.709
17105.323495, -6.561
17229.275720, -6.418
17354.126154, -6.281
17479.881306, -6.155
17606.547732, -6.041
17734.132034, -5.942
17862.640866, -5.862
17992.080925, -5.803
18122.458960, -5.769
18253.781768, -5.763
18386.056195, -5.787
18519.289138, -5.844
18653.487541, -5.937
18788.658401, -6.067
18924.808765, -6.241
19061.945730, -6.467
19200.076447, -6.757
19339.208116, -7.131
19479.347990, -7.596
19620.503375, -8.155
19762.681631, -8.760
19905.890168, -9.332
20050.136454, -9.699
