* Measurement data measured by REW V5.31.3
* Source: Headset (DS by VECLAN.COM), MICROPHONE (Master Volume), L, volume: 0.720. Timing signal peak level -16.3 dBFS, measurement signal peak level -11.5 dBFS
* Format: 2M Log Swept Sine, 1 sweep at -20.8 dBFS using an acoustic timing reference
* Dated: Nov 20, 2024 9:37:51 AM
* REW Settings:
*  C-weighting compensation: Off
*  Target level: 85.0 dB
* Note: ; EW300 DSP Cable  Delay -1.2557 ms (-431 mm, -(1 ft 4.96 in)) using estimated IR delay relative to Acoustic reference played from SPEAKER L with no timing offset Clock adjustment: 27.3 ppm
* Measurement: Silver L
* Smoothing: 1/24 octave
* Frequency Step: 1/48 octave
* Start Frequency: 1.000 Hz
*
* Freq(Hz), SPL(dB), Phase(degrees)
1.000000, 59.913, 109.2134
1.015000, 60.592, 108.5761
1.030000, 61.248, 107.8330
1.044000, 61.836, 107.0546
1.060000, 62.473, 106.0743
1.075000, 63.030, 105.0755
1.090000, 63.544, 104.0100
1.106000, 64.052, 102.8338
1.120000, 64.481, 101.8208
1.138000, 65.022, 100.5713
1.150000, 65.377, 99.7708
1.172000, 66.019, 98.3620
1.180000, 66.249, 97.8663
1.206000, 66.985, 96.3054
1.220000, 67.374, 95.4915
1.241000, 67.947, 94.2975
1.250000, 68.189, 93.7938
1.265000, 68.588, 92.9626
1.280000, 68.980, 92.1393
1.315000, 69.871, 90.2358
1.320000, 69.996, 89.9647
1.340000, 70.487, 88.8793
1.360000, 70.967, 87.7893
1.380000, 71.436, 86.6909
1.400000, 71.894, 85.5804
1.430000, 72.560, 83.8857
1.450000, 72.990, 82.7337
1.475000, 73.509, 81.2791
1.500000, 74.005, 79.8440
1.525000, 74.477, 78.4451
1.550000, 74.926, 77.0817
1.575000, 75.356, 75.7500
1.600000, 75.767, 74.4457
1.625000, 76.163, 73.1641
1.650000, 76.544, 71.9004
1.675000, 76.913, 70.6499
1.700000, 77.272, 69.4080
1.725000, 77.623, 68.1701
1.750000, 77.968, 66.9318
1.775000, 78.310, 65.6890
1.800000, 78.649, 64.4378
1.825000, 78.986, 63.1760
1.850000, 79.321, 61.9085
1.875000, 79.647, 60.6456
1.900000, 79.965, 59.3935
1.925000, 80.274, 58.1547
1.950000, 80.575, 56.9305
1.975000, 80.869, 55.7214
2.000000, 81.156, 54.5274
2.030000, 81.492, 53.1134
2.060000, 81.819, 51.7181
2.090000, 82.140, 50.3391
2.120000, 82.454, 48.9733
2.140000, 82.661, 48.0684
2.180000, 83.068, 46.2671
2.200000, 83.269, 45.3683
2.240000, 83.662, 43.5715
2.270000, 83.947, 42.2281
2.300000, 84.226, 40.8932
2.330000, 84.497, 39.5705
2.360000, 84.762, 38.2628
2.400000, 85.106, 36.5454
2.430000, 85.357, 35.2784
2.470000, 85.685, 33.6173
2.500000, 85.926, 32.3921
2.540000, 86.241, 30.7837
2.580000, 86.549, 29.1954
2.620000, 86.849, 27.6135
2.650000, 87.067, 26.4310
2.690000, 87.350, 24.8656
2.720000, 87.557, 23.7040
2.760000, 87.826, 22.1767
2.800000, 88.088, 20.6785
2.850000, 88.407, 18.8516
2.900000, 88.718, 17.0788
2.950000, 89.021, 15.3518
3.000000, 89.314, 13.6469
3.040000, 89.541, 12.2956
3.070000, 89.706, 11.2925
3.110000, 89.923, 9.9725
3.150000, 90.134, 8.6766
3.200000, 90.392, 7.0963
3.250000, 90.644, 5.5653
3.300000, 90.892, 4.0842
3.350000, 91.133, 2.6401
3.400000, 91.367, 1.2221
3.450000, 91.594, -0.1694
3.500000, 91.817, -1.5314
3.550000, 92.035, -2.8605
3.600000, 92.250, -4.1536
3.650000, 92.462, -5.4084
3.700000, 92.673, -6.6263
3.750000, 92.879, -7.8125
3.820000, 93.162, -9.4284
3.870000, 93.361, -10.5547
3.950000, 93.675, -12.3151
4.000000, 93.870, -13.3911
4.060000, 94.104, -14.6556
4.120000, 94.336, -15.8867
4.180000, 94.566, -17.0895
4.250000, 94.833, -18.4701
4.310000, 95.059, -19.6445
4.370000, 95.285, -20.8179
4.440000, 95.547, -22.1824
4.500000, 95.772, -23.3392
4.550000, 95.957, -24.2956
4.620000, 96.216, -25.6319
4.680000, 96.435, -26.7834
4.750000, 96.687, -28.1427
4.820000, 96.935, -29.5180
4.870000, 97.111, -30.5052
4.940000, 97.355, -31.8916
5.000000, 97.560, -33.0855
5.080000, 97.826, -34.6898
5.150000, 98.053, -36.1113
5.220000, 98.274, -37.5520
5.300000, 98.519, -39.2141
5.380000, 98.756, -40.8809
5.450000, 98.955, -42.3376
5.520000, 99.146, -43.7961
5.600000, 99.355, -45.4773
5.700000, 99.603, -47.5879
5.800000, 99.835, -49.6752
5.900000, 100.050, -51.7276
6.000000, 100.250, -53.7712
6.080000, 100.398, -55.3916
6.150000, 100.520, -56.7827
6.220000, 100.636, -58.1408
6.300000, 100.760, -59.6611
6.400000, 100.903, -61.5286
6.500000, 101.034, -63.3427
6.600000, 101.155, -65.0814
6.700000, 101.267, -66.7507
6.800000, 101.370, -68.3623
6.900000, 101.467, -69.9093
7.000000, 101.560, -71.3841
7.100000, 101.648, -72.7924
7.200000, 101.733, -74.1434
7.300000, 101.817, -75.4417
7.400000, 101.900, -76.6875
7.500000, 101.982, -77.8841
7.620000, 102.081, -79.2706
7.750000, 102.189, -80.7268
7.880000, 102.299, -82.1376
8.000000, 102.401, -83.4126
8.120000, 102.502, -84.6746
8.250000, 102.613, -86.0277
8.380000, 102.721, -87.3706
8.500000, 102.819, -88.6077
8.620000, 102.914, -89.8426
8.750000, 103.013, -91.1738
8.850000, 103.086, -92.1929
9.000000, 103.189, -93.7147
9.120000, 103.267, -94.9188
9.250000, 103.345, -96.2060
9.380000, 103.419, -97.4760
9.500000, 103.482, -98.6266
9.620000, 103.542, -99.7534
9.750000, 103.602, -100.9485
9.880000, 103.650, -102.1128
10.000000, 103.682, -103.1584
10.150000, 103.707, -104.4281
10.300000, 103.724, -105.6551
10.440000, 103.733, -106.7624
10.600000, 103.742, -107.9872
10.750000, 103.753, -109.0982
10.900000, 103.766, -110.1770
11.060000, 103.780, -111.2983
11.200000, 103.794, -112.2572
11.380000, 103.812, -113.4668
11.500000, 103.824, -114.2613
11.720000, 103.848, -115.6977
11.800000, 103.857, -116.2149
12.060000, 103.890, -117.8764
12.200000, 103.908, -118.7578
12.410000, 103.934, -120.0588
12.500000, 103.944, -120.6064
12.650000, 103.958, -121.5048
12.800000, 103.969, -122.3822
13.150000, 103.991, -124.3357
13.200000, 103.994, -124.6036
13.400000, 104.006, -125.6475
13.600000, 104.021, -126.6509
13.800000, 104.037, -127.6186
14.000000, 104.055, -128.5585
14.300000, 104.083, -129.9296
14.500000, 104.102, -130.8257
14.750000, 104.126, -131.9301
15.000000, 104.149, -133.0184
15.250000, 104.174, -134.0897
15.500000, 104.198, -135.1428
15.750000, 104.219, -136.1771
16.000000, 104.236, -137.1925
16.250000, 104.250, -138.1879
16.500000, 104.260, -139.1602
16.750000, 104.266, -140.1043
17.000000, 104.271, -141.0142
17.250000, 104.275, -141.8869
17.500000, 104.279, -142.7234
17.750000, 104.285, -143.5312
18.000000, 104.292, -144.3212
18.250000, 104.301, -145.1047
18.500000, 104.309, -145.8891
18.750000, 104.316, -146.6734
19.000000, 104.321, -147.4502
19.250000, 104.323, -148.2057
19.500000, 104.323, -148.9283
19.750000, 104.322, -149.6122
20.000000, 104.324, -150.2610
20.299999, 104.331, -151.0120
20.600000, 104.343, -151.7602
20.900000, 104.357, -152.5265
21.200001, 104.367, -153.3106
21.400000, 104.369, -153.8320
21.799999, 104.363, -154.8274
22.000000, 104.357, -155.2850
22.400000, 104.348, -156.1133
22.700001, 104.350, -156.6892
23.000000, 104.360, -157.2725
23.299999, 104.373, -157.8965
23.600000, 104.381, -158.5670
24.000000, 104.376, -159.4821
24.299999, 104.358, -160.1228
24.700001, 104.327, -160.8515
25.000000, 104.309, -161.3049
25.400000, 104.300, -161.8634
25.799999, 104.307, -162.4809
26.200001, 104.311, -163.2105
26.500000, 104.302, -163.7985
26.900000, 104.270, -164.5410
27.200001, 104.238, -165.0121
27.600000, 104.200, -165.5132
28.000000, 104.182, -165.9431
28.500000, 104.182, -166.5472
29.000000, 104.183, -167.3029
29.500000, 104.162, -168.1086
30.000000, 104.125, -168.8250
30.400000, 104.096, -169.3132
30.700001, 104.078, -169.6523
31.100000, 104.060, -170.0990
31.500000, 104.044, -170.5516
32.000000, 104.024, -171.1089
32.500000, 104.004, -171.6420
33.000000, 103.988, -172.1685
33.500000, 103.970, -172.7058
34.000000, 103.949, -173.2326
34.500000, 103.926, -173.7169
35.000000, 103.906, -174.1653
35.500000, 103.889, -174.6168
36.000000, 103.869, -175.0900
36.500000, 103.841, -175.5567
37.000000, 103.807, -175.9770
37.500000, 103.774, -176.3442
38.200001, 103.735, -176.8314
38.700001, 103.708, -177.2020
39.500000, 103.658, -177.8266
40.000000, 103.619, -178.1988
40.599998, 103.570, -178.5897
41.200001, 103.525, -178.9234
41.799999, 103.490, -179.2528
42.500000, 103.453, -179.6985
43.099998, 103.414, 179.8955
43.700001, 103.369, 179.5388
44.400002, 103.318, 179.2004
45.000000, 103.282, 178.9192
45.500000, 103.251, 178.6720
46.200001, 103.202, 178.3381
46.799999, 103.158, 178.0833
47.500000, 103.107, 177.8111
48.200001, 103.054, 177.5822
48.700001, 103.019, 177.4566
49.400002, 102.982, 177.2785
50.000000, 102.954, 177.0537
50.799999, 102.903, 176.6765
51.500000, 102.842, 176.4049
52.200001, 102.783, 176.2355
53.000000, 102.727, 176.0818
53.799999, 102.679, 175.8849
54.500000, 102.633, 175.6716
55.200001, 102.578, 175.4689
56.000000, 102.511, 175.3028
57.000000, 102.432, 175.1762
58.000000, 102.365, 175.0526
59.000000, 102.292, 174.8342
60.000000, 102.194, 174.7181
60.799999, 102.126, 174.7611
61.500000, 102.074, 174.7609
62.200001, 102.013, 174.7755
63.000000, 101.949, 174.9365
64.000000, 101.909, 175.0667
65.000000, 101.853, 174.9265
66.000000, 101.769, 174.8928
67.000000, 101.691, 174.9626
68.000000, 101.616, 175.0423
69.000000, 101.542, 175.1384
70.000000, 101.466, 175.2361
71.000000, 101.390, 175.3578
72.000000, 101.316, 175.4673
73.000000, 101.240, 175.5580
74.000000, 101.161, 175.6832
75.000000, 101.090, 175.8443
76.199997, 101.010, 176.0208
77.500000, 100.920, 176.2336
78.800003, 100.826, 176.5431
80.000000, 100.744, 176.9104
81.199997, 100.669, 177.2417
82.500000, 100.579, 177.5303
83.800003, 100.480, 177.8231
85.000000, 100.391, 178.1603
86.199997, 100.318, 178.5157
87.500000, 100.244, 178.8526
88.500000, 100.184, 179.1215
90.000000, 100.091, 179.5878
91.199997, 100.018, -179.9957
92.500000, 99.940, -179.5389
93.800003, 99.865, -179.0927
95.000000, 99.794, -178.6828
96.199997, 99.723, -178.2578
97.500000, 99.648, -177.7822
98.800003, 99.575, -177.3158
100.000000, 99.505, -176.8804
101.500000, 99.422, -176.3164
103.000000, 99.344, -175.7807
104.400002, 99.269, -175.2602
106.000000, 99.193, -174.6178
107.500000, 99.123, -174.0768
109.000000, 99.046, -173.5158
110.599998, 98.966, -172.9082
112.000000, 98.895, -172.3671
113.800003, 98.808, -171.6520
115.000000, 98.752, -171.1835
117.199997, 98.647, -170.3504
118.000000, 98.609, -170.0547
120.599998, 98.484, -169.0906
122.000000, 98.428, -168.4974
124.099998, 98.362, -167.6197
125.000000, 98.336, -167.2720
126.500000, 98.283, -166.7546
128.000000, 98.212, -166.2059
131.500000, 98.052, -164.7162
132.000000, 98.031, -164.5102
134.000000, 97.955, -163.6984
136.000000, 97.886, -162.8958
138.000000, 97.824, -162.0532
140.000000, 97.764, -161.2187
143.000000, 97.665, -159.9509
145.000000, 97.599, -159.1460
147.500000, 97.508, -158.2248
150.000000, 97.420, -157.2670
152.500000, 97.319, -156.3022
155.000000, 97.209, -155.1678
157.500000, 97.103, -153.9765
160.000000, 96.994, -152.6984
162.500000, 96.892, -151.2585
165.000000, 96.843, -149.6849
167.500000, 96.869, -148.2472
170.000000, 96.921, -147.2477
172.500000, 96.920, -146.7001
175.000000, 96.854, -146.1796
177.500000, 96.777, -145.4885
180.000000, 96.712, -144.6335
182.500000, 96.649, -143.7269
185.000000, 96.578, -142.8541
187.500000, 96.506, -141.9742
190.000000, 96.445, -141.0655
192.500000, 96.389, -140.1073
195.000000, 96.332, -139.1472
197.500000, 96.272, -138.2060
200.000000, 96.215, -137.2767
203.000000, 96.151, -136.1523
206.000000, 96.091, -135.0007
209.000000, 96.033, -133.8809
212.000000, 95.971, -132.7377
214.000000, 95.931, -131.9836
218.000000, 95.856, -130.5376
220.000000, 95.822, -129.8232
224.000000, 95.757, -128.3767
227.000000, 95.708, -127.3206
230.000000, 95.662, -126.2801
233.000000, 95.615, -125.2338
236.000000, 95.568, -124.1792
240.000000, 95.506, -122.7732
243.000000, 95.458, -121.6917
247.000000, 95.402, -120.3453
250.000000, 95.363, -119.3807
254.000000, 95.309, -117.9890
258.000000, 95.256, -116.6602
262.000000, 95.210, -115.4126
265.000000, 95.177, -114.4642
269.000000, 95.137, -113.2172
272.000000, 95.109, -112.2936
276.000000, 95.074, -111.0586
280.000000, 95.042, -109.8270
285.000000, 95.001, -108.3241
290.000000, 94.960, -106.8531
295.000000, 94.922, -105.4216
300.000000, 94.885, -104.0353
304.000000, 94.859, -102.9238
307.000000, 94.841, -102.1025
311.000000, 94.815, -101.0367
315.000000, 94.793, -99.9877
320.000000, 94.773, -98.6874
325.000000, 94.749, -97.4129
330.000000, 94.725, -96.1692
335.000000, 94.704, -94.9555
340.000000, 94.682, -93.7850
345.000000, 94.659, -92.6491
350.000000, 94.637, -91.5267
355.000000, 94.617, -90.4363
360.000000, 94.599, -89.3897
365.000000, 94.583, -88.3599
370.000000, 94.568, -87.3573
375.000000, 94.553, -86.3811
382.000000, 94.525, -85.0462
387.000000, 94.506, -84.1244
395.000000, 94.481, -82.7188
400.000000, 94.466, -81.8773
406.000000, 94.449, -80.8943
412.000000, 94.433, -79.9347
418.000000, 94.421, -78.9954
425.000000, 94.407, -77.9027
431.000000, 94.395, -76.9762
437.000000, 94.382, -76.0567
444.000000, 94.364, -75.0204
450.000000, 94.351, -74.1700
455.000000, 94.341, -73.4728
462.000000, 94.328, -72.5082
468.000000, 94.316, -71.6962
475.000000, 94.305, -70.7607
482.000000, 94.296, -69.8444
487.000000, 94.292, -69.1995
494.000000, 94.285, -68.3008
500.000000, 94.277, -67.5373
508.000000, 94.273, -66.5677
515.000000, 94.273, -65.7368
522.000000, 94.271, -64.9223
530.000000, 94.265, -64.0032
538.000000, 94.259, -63.0926
545.000000, 94.258, -62.3263
552.000000, 94.257, -61.5796
560.000000, 94.257, -60.7394
570.000000, 94.259, -59.7153
580.000000, 94.264, -58.7185
590.000000, 94.274, -57.7483
600.000000, 94.287, -56.8009
608.000000, 94.295, -56.0460
615.000000, 94.300, -55.3970
622.000000, 94.304, -54.7591
630.000000, 94.309, -54.0488
640.000000, 94.316, -53.1903
650.000000, 94.323, -52.3377
660.000000, 94.334, -51.5123
670.000000, 94.348, -50.7375
680.000000, 94.364, -49.9803
690.000000, 94.381, -49.2382
700.000000, 94.399, -48.5174
710.000000, 94.419, -47.8242
720.000000, 94.442, -47.1517
730.000000, 94.467, -46.4996
740.000000, 94.495, -45.8754
750.000000, 94.525, -45.2711
762.000000, 94.564, -44.5776
775.000000, 94.605, -43.8640
788.000000, 94.651, -43.1887
800.000000, 94.697, -42.6021
812.000000, 94.745, -42.0512
825.000000, 94.799, -41.4888
838.000000, 94.856, -40.9463
850.000000, 94.915, -40.4683
862.000000, 94.977, -40.0018
875.000000, 95.047, -39.5215
885.000000, 95.103, -39.1862
900.000000, 95.189, -38.7377
912.000000, 95.259, -38.4304
925.000000, 95.338, -38.1500
938.000000, 95.421, -37.9288
950.000000, 95.499, -37.7613
962.000000, 95.578, -37.6318
975.000000, 95.664, -37.5498
988.000000, 95.749, -37.5286
1000.000000, 95.829, -37.5481
1015.000000, 95.926, -37.6114
1030.000000, 96.027, -37.7447
1044.000000, 96.123, -37.9342
1060.000000, 96.233, -38.2292
1075.000000, 96.335, -38.5690
1090.000000, 96.443, -38.9621
1106.000000, 96.567, -39.4534
1120.000000, 96.677, -39.9364
1138.000000, 96.817, -40.6171
1150.000000, 96.909, -41.1109
1172.000000, 97.075, -42.1105
1180.000000, 97.135, -42.5022
1206.000000, 97.328, -43.8399
1220.000000, 97.434, -44.5811
1241.000000, 97.595, -45.6936
1250.000000, 97.664, -46.1663
1265.000000, 97.778, -46.9596
1280.000000, 97.890, -47.7643
1315.000000, 98.142, -49.6279
1320.000000, 98.176, -49.8934
1340.000000, 98.307, -50.9625
1360.000000, 98.418, -52.0300
1380.000000, 98.525, -53.0833
1400.000000, 98.644, -54.1259
1430.000000, 98.829, -55.6569
1450.000000, 98.953, -56.6724
1475.000000, 99.104, -57.9041
1500.000000, 99.249, -59.0663
1525.000000, 99.392, -60.1775
1550.000000, 99.536, -61.2114
1575.000000, 99.690, -62.1852
1600.000000, 99.860, -63.1559
1625.000000, 100.043, -64.1960
1650.000000, 100.225, -65.3372
1675.000000, 100.396, -66.5363
1700.000000, 100.554, -67.7276
1725.000000, 100.703, -68.8888
1750.000000, 100.847, -70.0134
1775.000000, 100.992, -71.1009
1800.000000, 101.136, -72.1536
1825.000000, 101.279, -73.1738
1850.000000, 101.420, -74.1646
1875.000000, 101.556, -75.1183
1900.000000, 101.692, -76.0471
1925.000000, 101.829, -76.9500
1950.000000, 101.967, -77.8182
1975.000000, 102.106, -78.6539
2000.000000, 102.246, -79.4724
2030.000000, 102.420, -80.4681
2060.000000, 102.594, -81.4931
2090.000000, 102.762, -82.5391
2120.000000, 102.919, -83.5832
2140.000000, 103.018, -84.2594
2180.000000, 103.208, -85.4882
2200.000000, 103.298, -86.0108
2240.000000, 103.460, -86.9081
2270.000000, 103.568, -87.5072
2300.000000, 103.668, -88.0541
2330.000000, 103.760, -88.5421
2360.000000, 103.845, -88.9595
2400.000000, 103.947, -89.3913
2430.000000, 104.015, -89.6178
2470.000000, 104.097, -89.8152
2500.000000, 104.150, -89.9155
2540.000000, 104.205, -89.9556
2580.000000, 104.245, -89.8027
2620.000000, 104.262, -89.4354
2650.000000, 104.263, -89.0128
2690.000000, 104.253, -88.2219
2720.000000, 104.241, -87.4476
2760.000000, 104.232, -86.2001
2800.000000, 104.239, -84.7865
2850.000000, 104.267, -82.9491
2900.000000, 104.281, -81.1323
2950.000000, 104.263, -79.1272
3000.000000, 104.206, -76.7554
3040.000000, 104.139, -74.5877
3070.000000, 104.081, -72.7935
3110.000000, 104.000, -70.1729
3150.000000, 103.919, -67.3329
3200.000000, 103.828, -63.5592
3250.000000, 103.762, -59.5407
3300.000000, 103.719, -55.3137
3350.000000, 103.689, -50.9356
3400.000000, 103.662, -46.3790
3450.000000, 103.642, -41.6016
3500.000000, 103.633, -36.6081
3550.000000, 103.633, -31.4168
3600.000000, 103.638, -26.0757
3650.000000, 103.645, -20.5988
3700.000000, 103.649, -14.9703
3750.000000, 103.651, -9.1608
3820.000000, 103.653, -0.7030
3870.000000, 103.651, 5.5800
3950.000000, 103.639, 16.0334
4000.000000, 103.635, 22.7785
4060.000000, 103.635, 31.0631
4120.000000, 103.634, 39.5527
4180.000000, 103.627, 48.2430
4250.000000, 103.607, 58.6541
4310.000000, 103.573, 67.8184
4370.000000, 103.520, 77.2068
4440.000000, 103.435, 88.4526
4500.000000, 103.344, 98.3495
4550.000000, 103.254, 106.7835
4620.000000, 103.109, 118.8812
4680.000000, 102.966, 129.5367
4750.000000, 102.776, 142.3382
4820.000000, 102.557, 155.5646
4870.000000, 102.387, 165.2844
4940.000000, 102.128, 179.2991
5000.000000, 101.890, -168.2927
5080.000000, 101.553, -151.1788
5150.000000, 101.244, -135.6736
5220.000000, 100.925, -119.6769
5300.000000, 100.552, -100.7971
5380.000000, 100.174, -81.2681
5450.000000, 99.841, -63.6418
5520.000000, 99.512, -45.5175
5600.000000, 99.141, -24.2036
5700.000000, 98.691, 3.2393
5800.000000, 98.258, 31.2018
5900.000000, 97.846, 59.5375
6000.000000, 97.465, 88.3531
6080.000000, 97.185, 111.7516
6150.000000, 96.958, 132.4633
6220.000000, 96.749, 153.3831
6300.000000, 96.530, 177.5410
6400.000000, 96.285, -151.8925
6500.000000, 96.077, -120.9142
6600.000000, 95.910, -89.5272
6700.000000, 95.796, -57.7731
6800.000000, 95.747, -25.7134
6900.000000, 95.784, 6.5925
7000.000000, 95.911, 39.0844
7100.000000, 96.116, 71.6949
7200.000000, 96.396, 104.3309
7300.000000, 96.759, 136.8425
7400.000000, 97.205, 169.0410
7500.000000, 97.725, -159.2794
7620.000000, 98.430, -122.2549
7750.000000, 99.208, -83.7722
7880.000000, 99.775, -47.1985
8000.000000, 99.985, -14.7970
8120.000000, 99.817, 17.2222
8250.000000, 99.215, 52.8518
8380.000000, 98.294, 90.4836
8500.000000, 97.308, 127.1240
8620.000000, 96.295, 165.4473
8750.000000, 95.220, -151.3362
8850.000000, 94.430, -117.0344
9000.000000, 93.338, -64.1238
9120.000000, 92.565, -20.7931
9250.000000, 91.828, 26.8849
9380.000000, 91.181, 75.1334
9500.000000, 90.651, 120.1141
9620.000000, 90.181, 165.5610
9750.000000, 89.745, -144.6923
9880.000000, 89.388, -94.5262
10000.000000, 89.119, -47.9143
10150.000000, 88.851, 10.7805
10300.000000, 88.657, 70.0024
10440.000000, 88.547, 125.7625
10600.000000, 88.518, -169.9563
10750.000000, 88.593, -109.1663
10900.000000, 88.787, -47.8047
11060.000000, 89.172, 18.4019
11200.000000, 89.726, 76.8582
11380.000000, 90.814, 151.7751
11500.000000, 91.755, -159.3691
11720.000000, 93.703, -73.6670
11800.000000, 94.411, -43.7864
12060.000000, 96.470, 49.3730
12200.000000, 97.330, 97.3345
12410.000000, 98.122, 166.7551
12500.000000, 98.239, -164.1211
12650.000000, 98.128, -115.5227
12800.000000, 97.674, -65.8567
13150.000000, 95.796, 57.8745
13200.000000, 95.491, 76.5330
13400.000000, 94.302, 153.2798
13600.000000, 93.243, -127.2913
13800.000000, 92.378, -45.9597
14000.000000, 91.728, 36.6860
14300.000000, 91.133, 162.2295
14500.000000, 90.982, -113.5420
14750.000000, 91.056, -8.2568
15000.000000, 91.405, 96.3035
15250.000000, 91.967, -161.1680
15500.000000, 92.571, -61.9954
15750.000000, 92.899, 33.8330
16000.000000, 92.674, 128.2954
16250.000000, 91.862, -135.8813
16500.000000, 90.618, -36.6606
16750.000000, 89.173, 66.7998
17000.000000, 87.741, 174.1953
17250.000000, 86.469, -75.3423
17500.000000, 85.447, 37.2808
17750.000000, 84.708, 151.2188
18000.000000, 84.261, -94.2041
18250.000000, 84.101, 19.9634
18500.000000, 84.138, 131.5020
18750.000000, 84.093, -121.9937
19000.000000, 83.560, -20.8794
19250.000000, 82.222, 78.1494
19500.000000, 80.056, -179.6460
19750.000000, 77.365, -70.8789
20000.000000, 74.403, 41.9863
20300.000000, 70.564, -172.4004
20600.000000, 67.861, 13.5576
20900.000000, 67.983, -173.2427
21200.000000, 69.124, -33.7227
21400.000000, 69.590, 52.2354
21800.000000, 69.128, -144.4087
22000.000000, 68.106, -65.1011
22400.000000, 64.402, 89.9307
22700.000000, 60.088, -157.1963
23000.000000, 54.405, -46.4277
23300.000000, 47.445, 63.2993
23600.000000, 39.433, 170.8799
24000.000000, 28.816, -55.8833
