* Measurement data measured by REW V5.31.3
* Source: Headset (DS by VECLAN.COM), MICROPHONE (Master Volume), L, volume: 0.720. Timing signal peak level -15.2 dBFS, measurement signal peak level -14.1 dBFS
* Format: 4M Log Swept Sine, 1 sweep at -29.7 dBFS using an acoustic timing reference
* Dated: Sep 12, 2024 10:32:51 AM
* REW Settings:
*  C-weighting compensation: Off
*  Target level: 85.0 dB
* Note: ; Fosi DS1 Delay -0.0674 ms (-23 mm, -0.91 in) using estimated IR delay relative to Acoustic reference played from SPEAKER L with no timing offset Clock adjustment: -25.9 ppm
* Measurement: Spring L
* Smoothing: 1/24 octave
* Frequency Step: 1/48 octave
* Start Frequency: 1.000 Hz
*
* Freq(Hz), SPL(dB), Phase(degrees)
1.000000, 78.428, -20.3251
1.015000, 78.857, -21.3595
1.030000, 79.277, -22.3936
1.044000, 79.659, -23.3616
1.060000, 80.081, -24.4745
1.075000, 80.463, -25.5265
1.090000, 80.829, -26.5855
1.106000, 81.204, -27.7047
1.120000, 81.524, -28.6432
1.138000, 81.927, -29.7744
1.150000, 82.190, -30.4829
1.172000, 82.663, -31.7008
1.180000, 82.832, -32.1233
1.206000, 83.368, -33.4163
1.220000, 83.648, -34.0682
1.241000, 84.059, -34.9973
1.250000, 84.231, -35.3799
1.265000, 84.513, -35.9997
1.280000, 84.789, -36.6001
1.315000, 85.408, -37.9428
1.320000, 85.494, -38.1294
1.340000, 85.830, -38.8666
1.360000, 86.154, -39.5914
1.380000, 86.467, -40.3467
1.400000, 86.769, -41.1135
1.430000, 87.201, -42.2657
1.450000, 87.474, -43.0379
1.475000, 87.797, -43.9937
1.500000, 88.093, -44.8969
1.525000, 88.362, -45.7331
1.550000, 88.606, -46.5095
1.575000, 88.828, -47.2530
1.600000, 89.031, -47.9862
1.625000, 89.218, -48.6871
1.650000, 89.392, -49.3636
1.675000, 89.557, -50.0228
1.700000, 89.715, -50.6710
1.725000, 89.870, -51.3140
1.750000, 90.024, -51.9567
1.775000, 90.180, -52.6177
1.800000, 90.342, -53.3137
1.825000, 90.511, -54.0169
1.850000, 90.685, -54.7154
1.875000, 90.859, -55.3903
1.900000, 91.029, -56.0370
1.925000, 91.197, -56.6573
1.950000, 91.362, -57.2542
1.975000, 91.524, -57.8420
2.000000, 91.684, -58.4346
2.030000, 91.873, -59.1274
2.060000, 92.058, -59.8067
2.090000, 92.241, -60.4780
2.120000, 92.421, -61.1462
2.140000, 92.539, -61.5923
2.180000, 92.773, -62.5101
2.200000, 92.888, -62.9898
2.240000, 93.115, -63.9363
2.270000, 93.281, -64.6255
2.300000, 93.444, -65.2957
2.330000, 93.605, -65.9482
2.360000, 93.762, -66.5851
2.400000, 93.968, -67.4516
2.430000, 94.120, -68.0943
2.470000, 94.318, -68.9393
2.500000, 94.464, -69.5678
2.540000, 94.656, -70.4032
2.580000, 94.844, -71.2521
2.620000, 95.029, -72.1225
2.650000, 95.164, -72.7644
2.690000, 95.341, -73.6046
2.720000, 95.471, -74.2225
2.760000, 95.641, -75.0289
2.800000, 95.807, -75.8547
2.850000, 96.009, -76.8720
2.900000, 96.206, -77.8719
2.950000, 96.398, -78.8611
3.000000, 96.584, -79.8698
3.040000, 96.729, -80.6772
3.070000, 96.835, -81.2750
3.110000, 96.973, -82.0597
3.150000, 97.108, -82.8291
3.200000, 97.273, -83.7980
3.250000, 97.432, -84.7568
3.300000, 97.587, -85.6958
3.350000, 97.737, -86.6237
3.400000, 97.882, -87.5692
3.450000, 98.023, -88.5119
3.500000, 98.158, -89.4351
3.550000, 98.290, -90.3339
3.600000, 98.417, -91.2326
3.650000, 98.541, -92.1169
3.700000, 98.662, -92.9837
3.750000, 98.778, -93.8422
3.820000, 98.934, -95.0541
3.870000, 99.042, -95.9055
3.950000, 99.206, -97.2197
4.000000, 99.306, -98.0311
4.060000, 99.421, -98.9885
4.120000, 99.531, -99.9285
4.180000, 99.637, -100.8586
4.250000, 99.755, -101.9435
4.310000, 99.853, -102.8402
4.370000, 99.947, -103.7065
4.440000, 100.054, -104.7095
4.500000, 100.141, -105.5503
4.550000, 100.211, -106.2371
4.620000, 100.306, -107.1970
4.680000, 100.385, -107.9973
4.750000, 100.474, -108.8946
4.820000, 100.560, -109.7808
4.870000, 100.620, -110.4033
4.940000, 100.701, -111.2538
5.000000, 100.769, -111.9762
5.080000, 100.856, -112.9181
5.150000, 100.931, -113.7106
5.220000, 101.004, -114.4994
5.300000, 101.085, -115.3833
5.380000, 101.164, -116.2428
5.450000, 101.230, -116.9919
5.520000, 101.295, -117.7173
5.600000, 101.366, -118.5350
5.700000, 101.452, -119.5450
5.800000, 101.535, -120.5270
5.900000, 101.615, -121.4929
6.000000, 101.692, -122.4375
6.080000, 101.752, -123.1863
6.150000, 101.803, -123.8229
6.220000, 101.852, -124.4610
6.300000, 101.906, -125.1776
6.400000, 101.970, -126.0603
6.500000, 102.031, -126.9323
6.600000, 102.089, -127.7809
6.700000, 102.144, -128.6230
6.800000, 102.197, -129.4472
6.900000, 102.246, -130.2577
7.000000, 102.292, -131.0412
7.100000, 102.333, -131.8115
7.200000, 102.372, -132.5600
7.300000, 102.409, -133.2906
7.400000, 102.444, -133.9941
7.500000, 102.479, -134.6810
7.620000, 102.518, -135.4777
7.750000, 102.558, -136.3065
7.880000, 102.596, -137.1122
8.000000, 102.629, -137.8269
8.120000, 102.662, -138.5243
8.250000, 102.698, -139.2584
8.380000, 102.733, -139.9701
8.500000, 102.765, -140.6154
8.620000, 102.796, -141.2457
8.750000, 102.828, -141.9152
8.850000, 102.853, -142.4245
9.000000, 102.890, -143.1729
9.120000, 102.918, -143.7658
9.250000, 102.948, -144.4019
9.380000, 102.976, -145.0277
9.500000, 103.001, -145.6052
9.620000, 103.024, -146.1727
9.750000, 103.046, -146.7807
9.880000, 103.060, -147.3765
10.000000, 103.062, -147.9079
10.150000, 103.052, -148.5841
10.300000, 103.034, -149.2274
10.440000, 103.010, -149.7983
10.600000, 102.980, -150.4166
10.750000, 102.952, -150.9632
10.900000, 102.926, -151.4801
11.060000, 102.900, -152.0325
11.200000, 102.880, -152.5379
11.380000, 102.856, -153.1587
11.500000, 102.838, -153.5562
11.720000, 102.808, -154.2549
11.800000, 102.798, -154.5004
12.060000, 102.770, -155.2906
12.200000, 102.759, -155.7361
12.410000, 102.745, -156.3826
12.500000, 102.738, -156.6513
12.650000, 102.725, -157.0882
12.800000, 102.711, -157.5103
13.150000, 102.679, -158.4840
13.200000, 102.674, -158.6253
13.400000, 102.658, -159.1727
13.600000, 102.643, -159.6920
13.800000, 102.628, -160.1845
14.000000, 102.614, -160.6570
14.300000, 102.595, -161.3940
14.500000, 102.582, -161.8638
14.750000, 102.565, -162.4257
15.000000, 102.549, -162.9630
15.250000, 102.539, -163.5246
15.500000, 102.530, -164.0608
15.750000, 102.520, -164.5690
16.000000, 102.509, -165.0517
16.250000, 102.499, -165.5561
16.500000, 102.490, -166.0406
16.750000, 102.481, -166.5070
17.000000, 102.474, -166.9614
17.250000, 102.467, -167.4344
17.500000, 102.460, -167.8941
17.750000, 102.451, -168.3334
18.000000, 102.440, -168.7532
18.250000, 102.430, -169.1797
18.500000, 102.419, -169.5848
18.750000, 102.409, -169.9672
19.000000, 102.402, -170.3317
19.250000, 102.396, -170.7122
19.500000, 102.392, -171.0838
19.750000, 102.388, -171.4475
20.000000, 102.383, -171.8033
20.299999, 102.376, -172.2490
20.600000, 102.367, -172.6729
20.900000, 102.357, -173.0706
21.200001, 102.348, -173.4624
21.400000, 102.341, -173.7188
21.799999, 102.330, -174.2147
22.000000, 102.325, -174.4608
22.400000, 102.314, -174.9812
22.700001, 102.304, -175.3679
23.000000, 102.290, -175.7433
23.299999, 102.274, -176.1115
23.600000, 102.256, -176.4517
24.000000, 102.235, -176.8610
24.299999, 102.223, -177.1620
24.700001, 102.212, -177.5540
25.000000, 102.205, -177.8516
25.400000, 102.195, -178.2774
25.799999, 102.182, -178.7039
26.200001, 102.165, -179.1266
26.500000, 102.152, -179.4346
26.900000, 102.134, -179.8171
27.200001, 102.121, 179.9045
27.600000, 102.106, 179.5392
28.000000, 102.092, 179.1794
28.500000, 102.073, 178.7135
29.000000, 102.053, 178.2685
29.500000, 102.031, 177.8442
30.000000, 102.009, 177.4340
30.400000, 101.991, 177.0943
30.700001, 101.975, 176.8465
31.100000, 101.955, 176.5280
31.500000, 101.934, 176.2194
32.000000, 101.909, 175.8527
32.500000, 101.886, 175.4866
33.000000, 101.862, 175.1229
33.500000, 101.836, 174.7437
34.000000, 101.811, 174.3795
34.500000, 101.788, 174.0347
35.000000, 101.765, 173.7015
35.500000, 101.742, 173.3653
36.000000, 101.718, 173.0391
36.500000, 101.695, 172.7194
37.000000, 101.672, 172.4080
37.500000, 101.649, 172.0888
38.200001, 101.614, 171.6529
38.700001, 101.587, 171.3552
39.500000, 101.547, 170.9046
40.000000, 101.523, 170.6313
40.599998, 101.492, 170.2865
41.200001, 101.461, 169.9583
41.799999, 101.430, 169.6467
42.500000, 101.394, 169.2887
43.099998, 101.365, 168.9850
43.700001, 101.337, 168.6980
44.400002, 101.305, 168.3545
45.000000, 101.276, 168.0551
45.500000, 101.250, 167.8258
46.200001, 101.215, 167.5237
46.799999, 101.188, 167.2573
47.500000, 101.158, 166.9390
48.200001, 101.125, 166.6139
48.700001, 101.099, 166.3909
49.400002, 101.065, 166.0919
50.000000, 101.037, 165.8375
50.799999, 100.996, 165.5008
51.500000, 100.958, 165.2147
52.200001, 100.922, 164.9523
53.000000, 100.882, 164.6886
53.799999, 100.844, 164.4000
54.500000, 100.810, 164.1475
55.200001, 100.773, 163.9033
56.000000, 100.732, 163.6443
57.000000, 100.683, 163.3614
58.000000, 100.636, 163.0513
59.000000, 100.593, 162.7407
60.000000, 100.543, 162.3991
60.799999, 100.494, 162.1127
61.500000, 100.451, 161.9214
62.200001, 100.410, 161.7465
63.000000, 100.364, 161.5461
64.000000, 100.312, 161.3600
65.000000, 100.262, 161.0769
66.000000, 100.213, 160.7836
67.000000, 100.163, 160.5405
68.000000, 100.116, 160.2543
69.000000, 100.065, 159.9622
70.000000, 100.006, 159.7470
71.000000, 99.956, 159.5884
72.000000, 99.912, 159.4036
73.000000, 99.865, 159.2219
74.000000, 99.816, 159.0397
75.000000, 99.767, 158.8534
76.199997, 99.706, 158.6357
77.500000, 99.641, 158.4363
78.800003, 99.581, 158.2555
80.000000, 99.526, 158.0464
81.199997, 99.469, 157.8375
82.500000, 99.403, 157.6288
83.800003, 99.336, 157.4802
85.000000, 99.277, 157.3535
86.199997, 99.220, 157.2101
87.500000, 99.161, 157.0983
88.500000, 99.118, 156.9891
90.000000, 99.053, 156.7861
91.199997, 98.999, 156.6024
92.500000, 98.939, 156.4984
93.800003, 98.881, 156.4052
95.000000, 98.826, 156.2886
96.199997, 98.771, 156.2072
97.500000, 98.713, 156.1620
98.800003, 98.657, 156.0945
100.000000, 98.605, 156.0085
101.500000, 98.540, 155.8948
103.000000, 98.474, 155.7996
104.400002, 98.412, 155.7468
106.000000, 98.345, 155.6761
107.500000, 98.281, 155.5864
109.000000, 98.214, 155.5274
110.599998, 98.143, 155.4362
112.000000, 98.082, 155.3925
113.800003, 98.006, 155.3843
115.000000, 97.956, 155.3611
117.199997, 97.860, 155.3083
118.000000, 97.825, 155.3024
120.599998, 97.718, 155.2963
122.000000, 97.669, 155.2804
124.099998, 97.605, 155.2293
125.000000, 97.577, 155.1916
126.500000, 97.521, 155.2103
128.000000, 97.457, 155.2309
131.500000, 97.303, 155.4297
132.000000, 97.285, 155.4648
134.000000, 97.228, 155.5962
136.000000, 97.179, 155.6928
138.000000, 97.120, 155.7910
140.000000, 97.051, 155.8987
143.000000, 96.947, 155.9271
145.000000, 96.882, 155.9927
147.500000, 96.804, 156.1226
150.000000, 96.715, 156.2833
152.500000, 96.632, 156.4325
155.000000, 96.570, 156.5859
157.500000, 96.502, 156.8506
160.000000, 96.421, 157.2323
162.500000, 96.350, 157.5990
165.000000, 96.300, 157.9857
167.500000, 96.284, 158.3911
170.000000, 96.279, 158.6434
172.500000, 96.257, 158.6671
175.000000, 96.212, 158.6061
177.500000, 96.151, 158.6002
180.000000, 96.082, 158.6285
182.500000, 96.013, 158.7556
185.000000, 95.948, 158.9279
187.500000, 95.887, 159.1748
190.000000, 95.833, 159.3734
192.500000, 95.786, 159.5233
195.000000, 95.743, 159.7146
197.500000, 95.701, 159.9235
200.000000, 95.661, 160.0953
203.000000, 95.611, 160.2054
206.000000, 95.555, 160.3465
209.000000, 95.498, 160.5345
212.000000, 95.437, 160.7000
214.000000, 95.397, 160.8370
218.000000, 95.321, 161.1491
220.000000, 95.283, 161.2892
224.000000, 95.208, 161.5879
227.000000, 95.153, 161.8105
230.000000, 95.100, 162.0344
233.000000, 95.048, 162.2888
236.000000, 94.995, 162.5494
240.000000, 94.925, 162.9009
243.000000, 94.876, 163.1537
247.000000, 94.814, 163.5031
250.000000, 94.769, 163.7685
254.000000, 94.709, 164.1257
258.000000, 94.650, 164.4948
262.000000, 94.591, 164.8566
265.000000, 94.548, 165.1299
269.000000, 94.494, 165.4933
272.000000, 94.456, 165.7700
276.000000, 94.408, 166.1386
280.000000, 94.361, 166.5184
285.000000, 94.305, 166.9924
290.000000, 94.251, 167.4504
295.000000, 94.199, 167.9260
300.000000, 94.148, 168.4121
304.000000, 94.109, 168.7601
307.000000, 94.081, 169.0420
311.000000, 94.046, 169.4277
315.000000, 94.011, 169.8042
320.000000, 93.969, 170.2682
325.000000, 93.928, 170.7558
330.000000, 93.888, 171.2234
335.000000, 93.848, 171.6950
340.000000, 93.808, 172.1551
345.000000, 93.769, 172.6345
350.000000, 93.731, 173.1021
355.000000, 93.692, 173.5485
360.000000, 93.654, 174.0339
365.000000, 93.617, 174.5244
370.000000, 93.581, 174.9869
375.000000, 93.546, 175.4354
382.000000, 93.501, 176.0977
387.000000, 93.468, 176.5722
395.000000, 93.420, 177.3250
400.000000, 93.392, 177.7711
406.000000, 93.359, 178.3090
412.000000, 93.326, 178.8700
418.000000, 93.293, 179.4198
425.000000, 93.256, -179.9548
431.000000, 93.226, -179.4027
437.000000, 93.198, -178.8703
444.000000, 93.167, -178.2371
450.000000, 93.142, -177.7015
455.000000, 93.122, -177.2514
462.000000, 93.097, -176.6365
468.000000, 93.076, -176.1207
475.000000, 93.052, -175.5070
482.000000, 93.029, -174.8925
487.000000, 93.015, -174.4640
494.000000, 92.996, -173.8588
500.000000, 92.981, -173.3477
508.000000, 92.961, -172.6506
515.000000, 92.944, -172.0426
522.000000, 92.927, -171.4450
530.000000, 92.911, -170.7529
538.000000, 92.895, -170.0600
545.000000, 92.883, -169.4660
552.000000, 92.873, -168.8630
560.000000, 92.863, -168.1687
570.000000, 92.851, -167.3103
580.000000, 92.840, -166.4453
590.000000, 92.832, -165.5787
600.000000, 92.825, -164.7450
608.000000, 92.819, -164.0547
615.000000, 92.814, -163.4485
622.000000, 92.808, -162.8387
630.000000, 92.803, -162.1635
640.000000, 92.799, -161.3077
650.000000, 92.797, -160.4547
660.000000, 92.796, -159.6127
670.000000, 92.796, -158.7542
680.000000, 92.800, -157.9115
690.000000, 92.807, -157.0674
700.000000, 92.817, -156.2263
710.000000, 92.828, -155.3725
720.000000, 92.840, -154.5345
730.000000, 92.855, -153.6961
740.000000, 92.872, -152.8650
750.000000, 92.891, -152.0275
762.000000, 92.915, -151.0235
775.000000, 92.944, -149.9611
788.000000, 92.975, -148.9073
800.000000, 93.007, -147.9366
812.000000, 93.041, -146.9832
825.000000, 93.082, -145.9537
838.000000, 93.126, -144.9447
850.000000, 93.168, -144.0281
862.000000, 93.212, -143.1098
875.000000, 93.263, -142.1349
885.000000, 93.305, -141.4003
900.000000, 93.370, -140.3047
912.000000, 93.425, -139.4472
925.000000, 93.487, -138.5552
938.000000, 93.551, -137.6738
950.000000, 93.612, -136.8752
962.000000, 93.675, -136.1125
975.000000, 93.744, -135.3088
988.000000, 93.818, -134.5300
1000.000000, 93.887, -133.8392
1015.000000, 93.970, -132.9888
1030.000000, 94.050, -132.1670
1044.000000, 94.124, -131.4302
1060.000000, 94.208, -130.6361
1075.000000, 94.286, -129.9244
1090.000000, 94.369, -129.2369
1106.000000, 94.466, -128.5180
1120.000000, 94.552, -127.9098
1138.000000, 94.661, -127.1681
1150.000000, 94.731, -126.6965
1172.000000, 94.856, -125.8400
1180.000000, 94.901, -125.5420
1206.000000, 95.043, -124.5893
1220.000000, 95.120, -124.0867
1241.000000, 95.236, -123.3580
1250.000000, 95.285, -123.0477
1265.000000, 95.365, -122.5248
1280.000000, 95.444, -122.0223
1315.000000, 95.623, -120.8498
1320.000000, 95.647, -120.6841
1340.000000, 95.737, -120.0275
1360.000000, 95.806, -119.3665
1380.000000, 95.872, -118.7132
1400.000000, 95.951, -118.0584
1430.000000, 96.075, -117.0833
1450.000000, 96.156, -116.4233
1475.000000, 96.257, -115.6101
1500.000000, 96.356, -114.7939
1525.000000, 96.452, -113.9771
1550.000000, 96.544, -113.1647
1575.000000, 96.634, -112.3503
1600.000000, 96.724, -111.5283
1625.000000, 96.815, -110.7243
1650.000000, 96.906, -109.9240
1675.000000, 96.997, -109.1294
1700.000000, 97.089, -108.3384
1725.000000, 97.180, -107.5561
1750.000000, 97.272, -106.7786
1775.000000, 97.365, -106.0191
1800.000000, 97.458, -105.2663
1825.000000, 97.552, -104.5233
1850.000000, 97.647, -103.7987
1875.000000, 97.741, -103.0844
1900.000000, 97.836, -102.3873
1925.000000, 97.930, -101.6999
1950.000000, 98.023, -101.0289
1975.000000, 98.116, -100.3705
2000.000000, 98.209, -99.7329
2030.000000, 98.323, -98.9837
2060.000000, 98.436, -98.2630
2090.000000, 98.549, -97.5646
2120.000000, 98.662, -96.8907
2140.000000, 98.737, -96.4528
2180.000000, 98.887, -95.6113
2200.000000, 98.960, -95.2143
2240.000000, 99.104, -94.4530
2270.000000, 99.209, -93.9076
2300.000000, 99.311, -93.3844
2330.000000, 99.411, -92.8790
2360.000000, 99.508, -92.4015
2400.000000, 99.635, -91.8036
2430.000000, 99.727, -91.3786
2470.000000, 99.846, -90.8493
2500.000000, 99.931, -90.4784
2540.000000, 100.038, -90.0162
2580.000000, 100.134, -89.5787
2620.000000, 100.221, -89.1596
2650.000000, 100.279, -88.8418
2690.000000, 100.348, -88.4029
2720.000000, 100.395, -88.0449
2760.000000, 100.451, -87.5031
2800.000000, 100.511, -86.8837
2850.000000, 100.605, -86.0623
2900.000000, 100.727, -85.3508
2950.000000, 100.857, -84.8990
3000.000000, 100.967, -84.6865
3040.000000, 101.030, -84.5997
3070.000000, 101.063, -84.5340
3110.000000, 101.093, -84.4215
3150.000000, 101.113, -84.2676
3200.000000, 101.131, -84.0376
3250.000000, 101.141, -83.8024
3300.000000, 101.139, -83.5734
3350.000000, 101.122, -83.3460
3400.000000, 101.090, -83.0806
3450.000000, 101.050, -82.7646
3500.000000, 101.004, -82.3962
3550.000000, 100.951, -81.9650
3600.000000, 100.889, -81.4716
3650.000000, 100.822, -80.9218
3700.000000, 100.748, -80.3079
3750.000000, 100.668, -79.6332
3820.000000, 100.549, -78.5872
3870.000000, 100.459, -77.7658
3950.000000, 100.306, -76.3174
4000.000000, 100.210, -75.3301
4060.000000, 100.095, -74.0584
4120.000000, 99.982, -72.7046
4180.000000, 99.877, -71.2861
4250.000000, 99.763, -69.5764
4310.000000, 99.665, -68.0729
4370.000000, 99.564, -66.5484
4440.000000, 99.445, -64.7412
4500.000000, 99.344, -63.1628
4550.000000, 99.261, -61.8279
4620.000000, 99.148, -59.9202
4680.000000, 99.055, -58.2465
4750.000000, 98.950, -56.2448
4820.000000, 98.853, -54.1982
4870.000000, 98.788, -52.7211
4940.000000, 98.706, -50.6238
5000.000000, 98.642, -48.8163
5080.000000, 98.565, -46.4084
5150.000000, 98.505, -44.3021
5220.000000, 98.449, -42.1998
5300.000000, 98.390, -39.7899
5380.000000, 98.336, -37.3656
5450.000000, 98.296, -35.2252
5520.000000, 98.262, -33.0663
5600.000000, 98.233, -30.5859
5700.000000, 98.211, -27.4576
5800.000000, 98.206, -24.3164
5900.000000, 98.221, -21.1696
6000.000000, 98.258, -18.0454
6080.000000, 98.306, -15.5748
6150.000000, 98.361, -13.4496
6220.000000, 98.430, -11.3777
6300.000000, 98.524, -9.0876
6400.000000, 98.662, -6.3829
6500.000000, 98.818, -3.8766
6600.000000, 98.984, -1.6267
6700.000000, 99.149, 0.3516
6800.000000, 99.306, 2.0910
6900.000000, 99.462, 3.6462
7000.000000, 99.612, 5.1252
7100.000000, 99.752, 6.6451
7200.000000, 99.895, 8.2820
7300.000000, 100.069, 9.9932
7400.000000, 100.296, 11.6266
7500.000000, 100.590, 12.9549
7620.000000, 101.036, 13.7763
7750.000000, 101.577, 13.2285
7880.000000, 101.981, 10.8417
8000.000000, 102.128, 7.0902
8120.000000, 101.978, 2.4133
8250.000000, 101.427, -2.6978
8380.000000, 100.511, -6.7842
8500.000000, 99.438, -9.0127
8620.000000, 98.247, -9.5978
8750.000000, 96.914, -8.5149
8850.000000, 95.900, -6.6589
9000.000000, 94.443, -2.5654
9120.000000, 93.347, 1.5874
9250.000000, 92.240, 6.7424
9380.000000, 91.212, 12.4313
9500.000000, 90.327, 18.0589
9620.000000, 89.499, 23.9764
9750.000000, 88.666, 30.6622
9880.000000, 87.895, 37.5847
10000.000000, 87.227, 44.1577
10150.000000, 86.443, 52.5988
10300.000000, 85.709, 61.2907
10440.000000, 85.063, 69.6330
10600.000000, 84.367, 79.4713
10750.000000, 83.751, 89.0437
10900.000000, 83.175, 99.0491
11060.000000, 82.612, 110.3158
11200.000000, 82.181, 120.8436
11380.000000, 81.766, 135.5688
11500.000000, 81.639, 146.2208
11720.000000, 81.940, 166.8571
11800.000000, 82.263, 174.1705
12060.000000, 83.901, -166.4420
12200.000000, 84.851, -159.5760
12410.000000, 85.953, -152.5430
12500.000000, 86.279, -150.0203
12650.000000, 86.664, -145.7294
12800.000000, 86.921, -140.9289
13150.000000, 87.428, -127.3308
13200.000000, 87.516, -125.1794
13400.000000, 87.943, -116.2875
13600.000000, 88.525, -107.1882
13800.000000, 89.299, -98.2367
14000.000000, 90.292, -89.7692
14300.000000, 92.252, -79.0063
14500.000000, 93.924, -74.2722
14750.000000, 96.306, -73.6195
15000.000000, 98.379, -81.1953
15250.000000, 99.175, -95.2613
15500.000000, 98.316, -108.7874
15750.000000, 96.434, -115.7215
16000.000000, 94.402, -115.7493
16250.000000, 92.667, -111.5374
16500.000000, 91.274, -105.5349
16750.000000, 90.091, -99.1400
17000.000000, 88.932, -92.7924
17250.000000, 87.628, -85.7212
17500.000000, 86.217, -75.9553
17750.000000, 85.090, -62.8241
18000.000000, 84.520, -49.4049
18250.000000, 84.234, -38.0872
18500.000000, 83.924, -28.2085
18750.000000, 83.522, -18.6482
19000.000000, 83.047, -8.9016
19250.000000, 82.497, 1.1559
19500.000000, 81.857, 11.5466
19750.000000, 81.140, 22.2715
20000.000000, 80.291, 33.3929
20300.000000, 79.120, 47.4618
20600.000000, 77.935, 62.3946
20900.000000, 76.768, 77.8218
21200.000000, 75.594, 92.7532
21400.000000, 74.736, 101.8822
21800.000000, 72.507, 118.0104
22000.000000, 70.995, 125.5815
22400.000000, 67.014, 141.2936
22700.000000, 63.162, 153.8112
23000.000000, 58.524, 166.3668
23300.000000, 53.004, 178.2397
23600.000000, 46.552, -170.7046
24000.000000, 38.311, -150.4233
