* Measurement data measured by REW V5.31.3
* Source: EXCL: Headset (USB-C to 3.5mm Headphone Jack Adapter), MICROPHONE (Master Volume), 0, volume: 0.700
* Format: 256k Log Swept Sine, 1 sweep at -12.0 dBFS with no timing reference
* Dated: Dec 21, 2024 11:47:31 AM
* REW Settings:
*  C-weighting compensation: Off
*  Target level: 75.0 dB
* Note: ; With the actual cable it came with and not some random ass 3.5mm cable, plus deuce impedance adapter
* Measurement: Hexa Green 10 ohm R
* Smoothing: 1/24 octave
* Frequency Step: 1/48 octave
* Start Frequency: 1.000 Hz
*
* Freq(Hz), SPL(dB), Phase(degrees)
1.000000, 76.435, 29.2855
1.015000, 76.678, 28.6639
1.030000, 76.919, 28.0332
1.044000, 77.142, 27.4352
1.060000, 77.396, 26.7397
1.075000, 77.632, 26.0750
1.090000, 77.867, 25.3983
1.106000, 78.116, 24.6689
1.120000, 78.331, 24.0348
1.138000, 78.605, 23.2323
1.150000, 78.785, 22.7055
1.172000, 79.111, 21.7552
1.180000, 79.228, 21.4142
1.206000, 79.603, 20.3203
1.220000, 79.802, 19.7392
1.241000, 80.097, 18.8763
1.250000, 80.222, 18.5091
1.265000, 80.428, 17.9001
1.280000, 80.632, 17.2941
1.315000, 81.100, 15.8874
1.320000, 81.166, 15.6869
1.340000, 81.427, 14.8851
1.360000, 81.686, 14.0824
1.380000, 81.941, 13.2774
1.400000, 82.193, 12.4685
1.430000, 82.566, 11.2454
1.450000, 82.812, 10.4221
1.475000, 83.115, 9.3873
1.500000, 83.412, 8.3585
1.525000, 83.704, 7.3424
1.550000, 83.990, 6.3397
1.575000, 84.270, 5.3496
1.600000, 84.546, 4.3713
1.625000, 84.816, 3.4036
1.650000, 85.082, 2.4450
1.675000, 85.343, 1.4937
1.700000, 85.599, 0.5481
1.725000, 85.852, -0.3937
1.750000, 86.101, -1.3337
1.775000, 86.346, -2.2740
1.800000, 86.587, -3.2164
1.825000, 86.825, -4.1627
1.850000, 87.059, -5.1130
1.875000, 87.289, -6.0647
1.900000, 87.514, -7.0152
1.925000, 87.735, -7.9625
1.950000, 87.951, -8.9048
1.975000, 88.164, -9.8411
2.000000, 88.372, -10.7704
2.030000, 88.618, -11.8756
2.060000, 88.858, -12.9697
2.090000, 89.093, -14.0526
2.120000, 89.324, -15.1247
2.140000, 89.476, -15.8340
2.180000, 89.773, -17.2411
2.200000, 89.920, -17.9410
2.240000, 90.206, -19.3417
2.270000, 90.414, -20.3941
2.300000, 90.617, -21.4448
2.330000, 90.816, -22.4907
2.360000, 91.010, -23.5292
2.400000, 91.262, -24.8984
2.430000, 91.446, -25.9116
2.470000, 91.686, -27.2417
2.500000, 91.862, -28.2226
2.540000, 92.091, -29.5082
2.580000, 92.315, -30.7745
2.620000, 92.532, -32.0362
2.650000, 92.690, -32.9816
2.690000, 92.894, -34.2368
2.720000, 93.043, -35.1711
2.760000, 93.237, -36.4029
2.800000, 93.425, -37.6148
2.850000, 93.653, -39.0955
2.900000, 93.875, -40.5334
2.950000, 94.090, -41.9334
3.000000, 94.296, -43.3168
3.040000, 94.455, -44.4154
3.070000, 94.572, -45.2326
3.110000, 94.722, -46.3101
3.150000, 94.869, -47.3702
3.200000, 95.048, -48.6657
3.250000, 95.221, -49.9228
3.300000, 95.391, -51.1400
3.350000, 95.555, -52.3281
3.400000, 95.713, -53.4970
3.450000, 95.866, -54.6463
3.500000, 96.015, -55.7731
3.550000, 96.159, -56.8742
3.600000, 96.301, -57.9465
3.650000, 96.440, -58.9881
3.700000, 96.576, -60.0015
3.750000, 96.709, -60.9928
3.820000, 96.889, -62.3478
3.870000, 97.015, -63.2927
3.950000, 97.211, -64.7641
4.000000, 97.332, -65.6581
4.060000, 97.475, -66.7051
4.120000, 97.616, -67.7263
4.180000, 97.754, -68.7247
4.250000, 97.912, -69.8645
4.310000, 98.046, -70.8228
4.370000, 98.177, -71.7657
4.440000, 98.329, -72.8477
4.500000, 98.457, -73.7594
4.550000, 98.563, -74.5090
4.620000, 98.708, -75.5446
4.680000, 98.831, -76.4212
4.750000, 98.972, -77.4334
4.820000, 99.110, -78.4362
4.870000, 99.207, -79.1470
4.940000, 99.340, -80.1338
5.000000, 99.453, -80.9712
5.080000, 99.599, -82.0755
5.150000, 99.723, -83.0315
5.220000, 99.845, -83.9810
5.300000, 99.980, -85.0579
5.380000, 100.111, -86.1216
5.450000, 100.222, -87.0386
5.520000, 100.330, -87.9426
5.600000, 100.449, -88.9645
5.700000, 100.593, -90.2245
5.800000, 100.731, -91.4573
5.900000, 100.863, -92.6583
6.000000, 100.991, -93.8332
6.080000, 101.089, -94.7551
6.150000, 101.173, -95.5468
6.220000, 101.255, -96.3235
6.300000, 101.347, -97.1935
6.400000, 101.458, -98.2577
6.500000, 101.566, -99.2978
6.600000, 101.672, -100.3144
6.700000, 101.776, -101.3082
6.800000, 101.877, -102.2818
6.900000, 101.977, -103.2382
7.000000, 102.075, -104.1796
7.100000, 102.170, -105.1069
7.200000, 102.264, -106.0213
7.300000, 102.356, -106.9245
7.400000, 102.446, -107.8184
7.500000, 102.534, -108.7033
7.620000, 102.636, -109.7527
7.750000, 102.742, -110.8741
7.880000, 102.844, -111.9815
8.000000, 102.935, -112.9884
8.120000, 103.022, -113.9787
8.250000, 103.112, -115.0345
8.380000, 103.198, -116.0697
8.500000, 103.275, -117.0051
8.620000, 103.348, -117.9223
8.750000, 103.424, -118.8949
8.850000, 103.481, -119.6273
9.000000, 103.564, -120.7022
9.120000, 103.628, -121.5427
9.250000, 103.696, -122.4347
9.380000, 103.763, -123.3087
9.500000, 103.823, -124.1018
9.620000, 103.882, -124.8831
9.750000, 103.945, -125.7171
9.880000, 104.006, -126.5409
10.000000, 104.062, -127.2936
10.150000, 104.130, -128.2251
10.300000, 104.196, -129.1485
10.440000, 104.255, -130.0042
10.600000, 104.320, -130.9749
10.750000, 104.379, -131.8783
10.900000, 104.434, -132.7744
11.060000, 104.488, -133.7192
11.200000, 104.533, -134.5358
11.380000, 104.585, -135.5659
11.500000, 104.618, -136.2382
11.720000, 104.671, -137.4349
11.800000, 104.689, -137.8566
12.060000, 104.743, -139.1752
12.200000, 104.771, -139.8504
12.410000, 104.812, -140.8207
12.500000, 104.830, -141.2227
12.650000, 104.862, -141.8764
12.800000, 104.895, -142.5162
13.150000, 104.979, -143.9859
13.200000, 104.992, -144.1968
13.400000, 105.044, -145.0484
13.600000, 105.096, -145.9190
13.800000, 105.145, -146.8116
14.000000, 105.190, -147.7208
14.300000, 105.246, -149.0959
14.500000, 105.274, -150.0003
14.750000, 105.301, -151.0931
15.000000, 105.322, -152.1269
15.250000, 105.340, -153.0939
15.500000, 105.359, -154.0029
15.750000, 105.384, -154.8729
16.000000, 105.414, -155.7297
16.250000, 105.448, -156.5969
16.500000, 105.483, -157.4885
16.750000, 105.515, -158.4077
17.000000, 105.542, -159.3443
17.250000, 105.561, -160.2811
17.500000, 105.573, -161.1982
17.750000, 105.579, -162.0785
18.000000, 105.582, -162.9123
18.250000, 105.583, -163.6978
18.500000, 105.586, -164.4414
18.750000, 105.592, -165.1535
19.000000, 105.601, -165.8458
19.250000, 105.613, -166.5282
19.500000, 105.626, -167.2062
19.750000, 105.639, -167.8819
20.000000, 105.653, -168.5544
20.299999, 105.669, -169.3557
20.600000, 105.686, -170.1515
20.900000, 105.703, -170.9469
21.200001, 105.720, -171.7503
21.400000, 105.731, -172.2943
21.799999, 105.747, -173.4046
22.000000, 105.751, -173.9665
22.400000, 105.747, -175.0795
22.700001, 105.736, -175.8787
23.000000, 105.720, -176.6269
23.299999, 105.702, -177.3192
23.600000, 105.688, -177.9666
24.000000, 105.678, -178.8034
24.299999, 105.675, -179.4447
24.700001, 105.671, 179.6583
25.000000, 105.664, 178.9649
25.400000, 105.647, 178.0525
25.799999, 105.627, 177.1859
26.200001, 105.613, 176.3510
26.500000, 105.607, 175.7127
26.900000, 105.601, 174.8112
27.200001, 105.591, 174.1049
27.600000, 105.566, 173.1832
28.000000, 105.533, 172.3595
28.500000, 105.508, 171.4753
29.000000, 105.517, 170.5648
29.500000, 105.534, 169.4243
30.000000, 105.510, 168.1413
30.400000, 105.451, 167.2421
30.700001, 105.397, 166.7468
31.100000, 105.339, 166.3297
31.500000, 105.321, 166.0530
32.000000, 105.349, 165.5890
32.500000, 105.385, 164.8275
33.000000, 105.389, 163.9084
33.500000, 105.362, 163.0636
34.000000, 105.334, 162.3488
34.500000, 105.316, 161.6567
35.000000, 105.297, 160.9072
35.500000, 105.265, 160.1391
36.000000, 105.226, 159.4185
36.500000, 105.190, 158.7395
37.000000, 105.160, 158.0486
37.500000, 105.129, 157.3250
38.200001, 105.080, 156.3127
38.700001, 105.045, 155.6185
39.500000, 104.995, 154.5248
40.000000, 104.966, 153.8441
40.599998, 104.930, 153.0460
41.200001, 104.897, 152.2660
41.799999, 104.864, 151.4890
42.500000, 104.820, 150.5988
43.099998, 104.780, 149.8748
43.700001, 104.741, 149.1813
44.400002, 104.697, 148.3737
45.000000, 104.658, 147.6711
45.500000, 104.622, 147.0890
46.200001, 104.572, 146.2891
46.799999, 104.529, 145.6071
47.500000, 104.477, 144.8213
48.200001, 104.424, 144.0860
48.700001, 104.391, 143.5877
49.400002, 104.355, 142.8676
50.000000, 104.323, 142.2053
50.799999, 104.268, 141.3348
51.500000, 104.218, 140.6368
52.200001, 104.172, 139.9671
53.000000, 104.119, 139.2215
53.799999, 104.073, 138.4756
54.500000, 104.035, 137.7495
55.200001, 103.981, 136.9849
56.000000, 103.907, 136.2099
57.000000, 103.829, 135.3734
58.000000, 103.764, 134.4952
59.000000, 103.696, 133.6209
60.000000, 103.631, 132.7850
60.799999, 103.581, 132.1204
61.500000, 103.536, 131.5423
62.200001, 103.490, 130.9756
63.000000, 103.439, 130.3350
64.000000, 103.374, 129.5211
65.000000, 103.305, 128.7144
66.000000, 103.235, 127.9258
67.000000, 103.165, 127.1625
68.000000, 103.100, 126.4302
69.000000, 103.040, 125.6992
70.000000, 102.980, 124.9701
71.000000, 102.918, 124.2572
72.000000, 102.854, 123.5858
73.000000, 102.792, 122.9347
74.000000, 102.728, 122.2501
75.000000, 102.657, 121.5609
76.199997, 102.575, 120.7574
77.500000, 102.493, 119.8398
78.800003, 102.418, 118.9289
80.000000, 102.356, 118.0535
81.199997, 102.283, 117.2992
82.500000, 102.229, 116.6456
83.800003, 102.169, 115.7947
85.000000, 102.078, 115.1212
86.199997, 101.995, 114.5525
87.500000, 101.912, 113.8615
88.500000, 101.851, 113.2905
90.000000, 101.759, 112.4199
91.199997, 101.689, 111.7624
92.500000, 101.616, 111.0897
93.800003, 101.546, 110.4410
95.000000, 101.482, 109.8363
96.199997, 101.419, 109.2161
97.500000, 101.351, 108.5536
98.800003, 101.287, 107.9082
100.000000, 101.226, 107.3237
101.500000, 101.144, 106.6112
103.000000, 101.059, 105.9069
104.400002, 100.984, 105.2398
106.000000, 100.910, 104.4741
107.500000, 100.847, 103.8029
109.000000, 100.779, 103.2136
110.599998, 100.695, 102.6325
112.000000, 100.617, 102.0156
113.800003, 100.519, 101.0325
115.000000, 100.479, 100.3798
117.199997, 100.509, 99.4742
118.000000, 100.558, 99.1885
120.599998, 100.542, 97.2190
122.000000, 100.342, 97.0026
124.099998, 100.121, 97.0456
125.000000, 100.051, 96.8313
126.500000, 99.955, 96.2352
128.000000, 99.870, 95.5099
131.500000, 99.721, 94.2205
132.000000, 99.704, 94.0019
134.000000, 99.612, 93.1196
136.000000, 99.534, 92.6186
138.000000, 99.499, 92.1960
140.000000, 99.444, 91.6123
143.000000, 99.300, 90.6202
145.000000, 99.228, 89.7390
147.500000, 99.138, 88.9170
150.000000, 99.093, 88.5338
152.500000, 99.021, 87.8891
155.000000, 98.921, 87.1189
157.500000, 98.849, 86.4460
160.000000, 98.789, 85.7290
162.500000, 98.700, 85.0306
165.000000, 98.599, 84.4203
167.500000, 98.543, 83.9044
170.000000, 98.516, 83.2990
172.500000, 98.481, 82.6618
175.000000, 98.432, 81.9863
177.500000, 98.381, 81.2684
180.000000, 98.330, 80.5369
182.500000, 98.268, 79.8468
185.000000, 98.200, 79.1833
187.500000, 98.133, 78.5113
190.000000, 98.072, 77.8892
192.500000, 98.017, 77.2966
195.000000, 97.960, 76.7150
197.500000, 97.900, 76.1273
200.000000, 97.838, 75.5531
203.000000, 97.767, 74.8856
206.000000, 97.698, 74.2337
209.000000, 97.631, 73.5984
212.000000, 97.567, 72.9774
214.000000, 97.525, 72.5741
218.000000, 97.444, 71.8259
220.000000, 97.405, 71.4583
224.000000, 97.326, 70.7227
227.000000, 97.269, 70.1935
230.000000, 97.214, 69.6570
233.000000, 97.158, 69.1311
236.000000, 97.105, 68.6184
240.000000, 97.039, 67.9639
243.000000, 96.990, 67.4835
247.000000, 96.925, 66.8403
250.000000, 96.876, 66.3667
254.000000, 96.815, 65.7655
258.000000, 96.755, 65.1916
262.000000, 96.697, 64.6194
265.000000, 96.654, 64.1907
269.000000, 96.598, 63.6418
272.000000, 96.557, 63.2526
276.000000, 96.503, 62.7465
280.000000, 96.452, 62.2256
285.000000, 96.391, 61.5957
290.000000, 96.330, 61.0034
295.000000, 96.273, 60.4315
300.000000, 96.216, 59.8788
304.000000, 96.173, 59.4505
307.000000, 96.141, 59.1347
311.000000, 96.100, 58.7244
315.000000, 96.060, 58.3308
320.000000, 96.012, 57.8524
325.000000, 95.967, 57.3815
330.000000, 95.923, 56.9251
335.000000, 95.881, 56.4797
340.000000, 95.840, 56.0423
345.000000, 95.801, 55.6165
350.000000, 95.762, 55.1962
355.000000, 95.723, 54.7853
360.000000, 95.685, 54.3898
365.000000, 95.648, 54.0092
370.000000, 95.612, 53.6392
375.000000, 95.577, 53.2864
382.000000, 95.527, 52.8090
387.000000, 95.493, 52.4835
395.000000, 95.439, 51.9857
400.000000, 95.407, 51.6880
406.000000, 95.369, 51.3523
412.000000, 95.332, 51.0357
418.000000, 95.296, 50.7259
425.000000, 95.256, 50.3857
431.000000, 95.223, 50.1139
437.000000, 95.191, 49.8552
444.000000, 95.155, 49.5713
450.000000, 95.125, 49.3351
455.000000, 95.100, 49.1479
462.000000, 95.067, 48.9030
468.000000, 95.040, 48.7009
475.000000, 95.009, 48.4837
482.000000, 94.978, 48.2806
487.000000, 94.958, 48.1456
494.000000, 94.930, 47.9682
500.000000, 94.907, 47.8252
508.000000, 94.876, 47.6566
515.000000, 94.850, 47.5190
522.000000, 94.824, 47.3891
530.000000, 94.796, 47.2647
538.000000, 94.770, 47.1590
545.000000, 94.748, 47.0779
552.000000, 94.727, 47.0065
560.000000, 94.704, 46.9344
570.000000, 94.676, 46.8659
580.000000, 94.650, 46.8195
590.000000, 94.625, 46.7980
600.000000, 94.601, 46.8043
608.000000, 94.584, 46.8225
615.000000, 94.569, 46.8499
622.000000, 94.556, 46.8886
630.000000, 94.541, 46.9410
640.000000, 94.524, 47.0196
650.000000, 94.508, 47.1226
660.000000, 94.495, 47.2446
670.000000, 94.483, 47.3800
680.000000, 94.473, 47.5296
690.000000, 94.465, 47.6949
700.000000, 94.458, 47.8808
710.000000, 94.452, 48.0839
720.000000, 94.449, 48.3012
730.000000, 94.448, 48.5305
740.000000, 94.449, 48.7781
750.000000, 94.451, 49.0427
762.000000, 94.457, 49.3829
775.000000, 94.467, 49.7744
788.000000, 94.481, 50.1868
800.000000, 94.498, 50.5884
812.000000, 94.519, 51.0100
825.000000, 94.547, 51.4789
838.000000, 94.581, 51.9575
850.000000, 94.617, 52.4073
862.000000, 94.658, 52.8654
875.000000, 94.709, 53.3703
885.000000, 94.751, 53.7595
900.000000, 94.820, 54.3431
912.000000, 94.881, 54.8003
925.000000, 94.952, 55.2866
938.000000, 95.029, 55.7620
950.000000, 95.105, 56.1874
962.000000, 95.186, 56.5958
975.000000, 95.278, 57.0164
988.000000, 95.374, 57.4112
1000.000000, 95.466, 57.7451
1015.000000, 95.585, 58.1294
1030.000000, 95.708, 58.4743
1044.000000, 95.825, 58.7523
1060.000000, 95.961, 59.0176
1075.000000, 96.090, 59.2183
1090.000000, 96.219, 59.3719
1106.000000, 96.355, 59.4861
1120.000000, 96.473, 59.5446
1138.000000, 96.623, 59.5618
1150.000000, 96.720, 59.5443
1172.000000, 96.894, 59.4605
1180.000000, 96.955, 59.4153
1206.000000, 97.145, 59.2130
1220.000000, 97.242, 59.0762
1241.000000, 97.381, 58.8467
1250.000000, 97.438, 58.7409
1265.000000, 97.530, 58.5551
1280.000000, 97.618, 58.3575
1315.000000, 97.808, 57.8662
1320.000000, 97.834, 57.7950
1340.000000, 97.932, 57.5090
1360.000000, 98.024, 57.2219
1380.000000, 98.110, 56.9362
1400.000000, 98.190, 56.6552
1430.000000, 98.301, 56.2513
1450.000000, 98.368, 55.9940
1475.000000, 98.446, 55.6930
1500.000000, 98.517, 55.4172
1525.000000, 98.582, 55.1754
1550.000000, 98.642, 54.9687
1575.000000, 98.700, 54.7953
1600.000000, 98.754, 54.6607
1625.000000, 98.806, 54.5668
1650.000000, 98.858, 54.5026
1675.000000, 98.909, 54.4669
1700.000000, 98.961, 54.4586
1725.000000, 99.012, 54.4750
1750.000000, 99.063, 54.5197
1775.000000, 99.116, 54.5933
1800.000000, 99.170, 54.6942
1825.000000, 99.226, 54.8210
1850.000000, 99.285, 54.9701
1875.000000, 99.347, 55.1363
1900.000000, 99.413, 55.3177
1925.000000, 99.483, 55.5108
1950.000000, 99.557, 55.7116
1975.000000, 99.634, 55.9162
2000.000000, 99.716, 56.1201
2030.000000, 99.819, 56.3589
2060.000000, 99.928, 56.5918
2090.000000, 100.042, 56.8162
2120.000000, 100.161, 57.0274
2140.000000, 100.244, 57.1573
2180.000000, 100.416, 57.3889
2200.000000, 100.506, 57.4887
2240.000000, 100.691, 57.6534
2270.000000, 100.835, 57.7404
2300.000000, 100.984, 57.7881
2330.000000, 101.137, 57.7945
2360.000000, 101.294, 57.7588
2400.000000, 101.508, 57.6379
2430.000000, 101.672, 57.4857
2470.000000, 101.894, 57.1920
2500.000000, 102.062, 56.9006
2540.000000, 102.285, 56.4176
2580.000000, 102.508, 55.8231
2620.000000, 102.726, 55.1132
2650.000000, 102.886, 54.5067
2690.000000, 103.093, 53.6096
2720.000000, 103.244, 52.8762
2760.000000, 103.438, 51.8152
2800.000000, 103.627, 50.6509
2850.000000, 103.851, 49.0268
2900.000000, 104.054, 47.1866
2950.000000, 104.225, 45.1296
3000.000000, 104.353, 42.9195
3040.000000, 104.422, 41.0973
3070.000000, 104.454, 39.7233
3110.000000, 104.473, 37.9037
3150.000000, 104.467, 36.1140
3200.000000, 104.427, 33.9347
3250.000000, 104.354, 31.8398
3300.000000, 104.249, 29.8551
3350.000000, 104.116, 28.0071
3400.000000, 103.961, 26.3101
3450.000000, 103.789, 24.7694
3500.000000, 103.604, 23.3822
3550.000000, 103.408, 22.1364
3600.000000, 103.203, 21.0238
3650.000000, 102.989, 20.0531
3700.000000, 102.767, 19.2365
3750.000000, 102.541, 18.5806
3820.000000, 102.226, 17.9153
3870.000000, 102.004, 17.6051
3950.000000, 101.659, 17.3687
4000.000000, 101.451, 17.3674
4060.000000, 101.211, 17.4996
4120.000000, 100.981, 17.7621
4180.000000, 100.764, 18.1485
4250.000000, 100.527, 18.7466
4310.000000, 100.341, 19.3677
4370.000000, 100.173, 20.0605
4440.000000, 99.998, 20.9197
4500.000000, 99.861, 21.6871
4550.000000, 99.754, 22.3516
4620.000000, 99.618, 23.3291
4680.000000, 99.515, 24.2092
4750.000000, 99.412, 25.2696
4820.000000, 99.327, 26.3529
4870.000000, 99.276, 27.1349
4940.000000, 99.220, 28.2267
5000.000000, 99.185, 29.1480
5080.000000, 99.155, 30.3412
5150.000000, 99.140, 31.3499
5220.000000, 99.133, 32.3441
5300.000000, 99.138, 33.4855
5380.000000, 99.161, 34.6314
5450.000000, 99.198, 35.6135
5520.000000, 99.251, 36.5505
5600.000000, 99.328, 37.5456
5700.000000, 99.446, 38.6569
5800.000000, 99.581, 39.6176
5900.000000, 99.730, 40.4279
6000.000000, 99.890, 41.0873
6080.000000, 100.025, 41.5074
6150.000000, 100.146, 41.8014
6220.000000, 100.268, 42.0334
6300.000000, 100.410, 42.2313
6400.000000, 100.591, 42.3942
6500.000000, 100.777, 42.4815
6600.000000, 100.973, 42.5048
6700.000000, 101.182, 42.4679
6800.000000, 101.411, 42.3615
6900.000000, 101.666, 42.1594
7000.000000, 101.954, 41.8240
7100.000000, 102.281, 41.2978
7200.000000, 102.653, 40.4877
7300.000000, 103.073, 39.2691
7400.000000, 103.537, 37.5000
7500.000000, 104.034, 35.0151
7620.000000, 104.642, 30.8299
7750.000000, 105.231, 24.5443
7880.000000, 105.624, 16.5101
8000.000000, 105.725, 7.9584
8120.000000, 105.507, -1.1853
8250.000000, 104.853, -10.6868
8380.000000, 103.847, -18.5540
8500.000000, 102.747, -23.9091
8620.000000, 101.601, -27.5045
8750.000000, 100.393, -29.7662
8850.000000, 99.519, -30.6005
9000.000000, 98.318, -30.7498
9120.000000, 97.458, -30.1558
9250.000000, 96.629, -29.0051
9380.000000, 95.902, -27.4808
9500.000000, 95.318, -25.8484
9620.000000, 94.812, -24.0783
9750.000000, 94.349, -22.0711
9880.000000, 93.970, -20.0339
10000.000000, 93.691, -18.1801
10150.000000, 93.437, -15.9724
10300.000000, 93.281, -13.9747
10440.000000, 93.219, -12.3822
10600.000000, 93.240, -10.9902
10750.000000, 93.336, -10.2010
10900.000000, 93.491, -10.0085
11060.000000, 93.698, -10.5428
11200.000000, 93.890, -11.6760
11380.000000, 94.115, -14.0270
11500.000000, 94.228, -16.0816
11720.000000, 94.320, -20.5068
11800.000000, 94.313, -22.2183
12060.000000, 94.178, -27.6721
12200.000000, 94.068, -30.3595
12410.000000, 93.934, -34.0566
12500.000000, 93.906, -35.6121
12650.000000, 93.903, -38.3474
12800.000000, 93.947, -41.3882
13150.000000, 94.183, -50.1272
13200.000000, 94.228, -51.6099
13400.000000, 94.411, -58.2247
13600.000000, 94.569, -65.9557
13800.000000, 94.662, -74.7239
14000.000000, 94.662, -84.3638
14300.000000, 94.469, -100.0231
14500.000000, 94.221, -111.0367
14750.000000, 93.795, -125.2886
15000.000000, 93.257, -139.9962
15250.000000, 92.616, -155.0767
15500.000000, 91.877, -170.4440
15750.000000, 91.037, 174.0403
16000.000000, 90.096, 158.6052
16250.000000, 89.051, 143.6091
16500.000000, 87.893, 129.8337
16750.000000, 86.860, 119.6319
17000.000000, 87.685, 114.6268
17250.000000, 90.801, 99.1559
17500.000000, 92.299, 65.0016
17750.000000, 91.661, 27.6895
18000.000000, 90.226, -7.4818
18250.000000, 88.452, -41.7135
18500.000000, 86.334, -75.4595
18750.000000, 83.947, -108.9543
19000.000000, 81.366, -142.7838
19250.000000, 78.565, -177.3210
19500.000000, 75.514, 147.3411
19750.000000, 72.323, 111.3411
20000.000000, 69.887, 80.9060
