* Measurement data measured by REW V5.31.3
* Source: Headset (DS by VECLAN.COM), no input selected, L, volume: no control. Timing signal peak level -8.0 dBFS, measurement signal peak level -8.1 dBFS
* Format: 2M Log Swept Sine, 1 sweep at -7.2 dBFS using an acoustic timing reference
* Dated: Nov 16, 2024 11:05:38 PM
* REW Settings:
*  C-weighting compensation: Off
*  Target level: 85.0 dB
* Note: ; Fosi DS1 Delay -0.1323 ms (-45 mm, -1.79 in) using estimated IR delay relative to Acoustic reference played from SPEAKER L with no timing offset Clock adjustment: -46.7 ppm
* Measurement: L5
* Smoothing: 1/24 octave
* Frequency Step: 1/48 octave
* Start Frequency: 1.000 Hz
*
* Freq(Hz), SPL(dB), Phase(degrees)
1.000000, 59.509, -17.9642
1.015000, 59.554, -19.0552
1.030000, 59.607, -20.1621
1.044000, 59.664, -21.2044
1.060000, 59.739, -22.3995
1.075000, 59.819, -23.5166
1.090000, 59.909, -24.6202
1.106000, 60.017, -25.7563
1.120000, 60.123, -26.6816
1.138000, 60.278, -27.7618
1.150000, 60.392, -28.4185
1.172000, 60.619, -29.5120
1.180000, 60.707, -29.8817
1.206000, 61.013, -30.9834
1.220000, 61.188, -31.5233
1.241000, 61.462, -32.2783
1.250000, 61.583, -32.5851
1.265000, 61.789, -33.0785
1.280000, 61.999, -33.5536
1.315000, 62.499, -34.6137
1.320000, 62.571, -34.7614
1.340000, 62.859, -35.3472
1.360000, 63.146, -35.9272
1.380000, 63.429, -36.5437
1.400000, 63.705, -37.1762
1.430000, 64.102, -38.1305
1.450000, 64.352, -38.7672
1.475000, 64.649, -39.5261
1.500000, 64.936, -40.1597
1.525000, 65.219, -40.6534
1.550000, 65.498, -41.0368
1.575000, 65.773, -41.3568
1.600000, 66.046, -41.6524
1.625000, 66.316, -41.9138
1.650000, 66.583, -42.1582
1.675000, 66.849, -42.3994
1.700000, 67.112, -42.6484
1.725000, 67.374, -42.9138
1.750000, 67.635, -43.2019
1.775000, 67.895, -43.5314
1.800000, 68.155, -43.9177
1.825000, 68.414, -44.3263
1.850000, 68.673, -44.7228
1.875000, 68.932, -45.0665
1.900000, 69.190, -45.3548
1.925000, 69.448, -45.6005
1.950000, 69.705, -45.8164
1.975000, 69.960, -46.0250
2.000000, 70.214, -46.2465
2.030000, 70.516, -46.5120
2.060000, 70.814, -46.7892
2.090000, 71.107, -47.0879
2.120000, 71.397, -47.4156
2.140000, 71.587, -47.6530
2.180000, 71.959, -48.1953
2.200000, 72.141, -48.5018
2.240000, 72.498, -49.0962
2.270000, 72.760, -49.5053
2.300000, 73.018, -49.8873
2.330000, 73.271, -50.2506
2.360000, 73.520, -50.6033
2.400000, 73.845, -51.1067
2.430000, 74.084, -51.4939
2.470000, 74.396, -52.0258
2.500000, 74.626, -52.4424
2.540000, 74.926, -53.0269
2.580000, 75.219, -53.6512
2.620000, 75.505, -54.2979
2.650000, 75.715, -54.7677
2.690000, 75.987, -55.3761
2.720000, 76.187, -55.8219
2.760000, 76.448, -56.4056
2.800000, 76.701, -57.0209
2.850000, 77.010, -57.7978
2.900000, 77.310, -58.5872
2.950000, 77.601, -59.3918
3.000000, 77.882, -60.2223
3.040000, 78.099, -60.8867
3.070000, 78.258, -61.3777
3.110000, 78.464, -62.0222
3.150000, 78.665, -62.6558
3.200000, 78.909, -63.4639
3.250000, 79.146, -64.2751
3.300000, 79.375, -65.0807
3.350000, 79.595, -65.8842
3.400000, 79.808, -66.7082
3.450000, 80.012, -67.5307
3.500000, 80.209, -68.3352
3.550000, 80.399, -69.1174
3.600000, 80.583, -69.9025
3.650000, 80.761, -70.6772
3.700000, 80.934, -71.4389
3.750000, 81.099, -72.1954
3.820000, 81.320, -73.2661
3.870000, 81.471, -74.0160
3.950000, 81.702, -75.1638
4.000000, 81.840, -75.8681
4.060000, 82.000, -76.6949
4.120000, 82.153, -77.5037
4.180000, 82.298, -78.3011
4.250000, 82.459, -79.2264
4.310000, 82.592, -79.9801
4.370000, 82.720, -80.6958
4.440000, 82.865, -81.5139
4.500000, 82.983, -82.1902
4.550000, 83.077, -82.7361
4.620000, 83.205, -83.4921
4.680000, 83.311, -84.1110
4.750000, 83.432, -84.7874
4.820000, 83.551, -85.4409
4.870000, 83.633, -85.8903
4.940000, 83.745, -86.4909
5.000000, 83.839, -86.9943
5.080000, 83.963, -87.6398
5.150000, 84.070, -88.1679
5.220000, 84.178, -88.6832
5.300000, 84.298, -89.2454
5.380000, 84.418, -89.7822
5.450000, 84.523, -90.2539
5.520000, 84.627, -90.7072
5.600000, 84.747, -91.2125
5.700000, 84.895, -91.8338
5.800000, 85.043, -92.4463
5.900000, 85.191, -93.0711
6.000000, 85.339, -93.6923
6.080000, 85.457, -94.1961
6.150000, 85.559, -94.6338
6.220000, 85.659, -95.0911
6.300000, 85.771, -95.6215
6.400000, 85.909, -96.2950
6.500000, 86.043, -96.9837
6.600000, 86.172, -97.6779
6.700000, 86.296, -98.3956
6.800000, 86.415, -99.1189
6.900000, 86.528, -99.8443
7.000000, 86.633, -100.5564
7.100000, 86.730, -101.2714
7.200000, 86.820, -101.9729
7.300000, 86.905, -102.6543
7.400000, 86.985, -103.3042
7.500000, 87.060, -103.9353
7.620000, 87.144, -104.6528
7.750000, 87.230, -105.3678
7.880000, 87.310, -106.0325
8.000000, 87.383, -106.5943
8.120000, 87.457, -107.1127
8.250000, 87.538, -107.6251
8.380000, 87.622, -108.1000
8.500000, 87.703, -108.5191
8.620000, 87.788, -108.9166
8.750000, 87.883, -109.3444
8.850000, 87.960, -109.6834
9.000000, 88.079, -110.2004
9.120000, 88.175, -110.6391
9.250000, 88.280, -111.1485
9.380000, 88.383, -111.6856
9.500000, 88.474, -112.2128
9.620000, 88.561, -112.7616
9.750000, 88.648, -113.3791
9.880000, 88.729, -114.0012
10.000000, 88.797, -114.5678
10.150000, 88.873, -115.2940
10.300000, 88.939, -115.9706
10.440000, 88.992, -116.5516
10.600000, 89.044, -117.1454
10.750000, 89.088, -117.6226
10.900000, 89.130, -118.0285
11.060000, 89.180, -118.4200
11.200000, 89.229, -118.7521
11.380000, 89.298, -119.1291
11.500000, 89.348, -119.3584
11.720000, 89.448, -119.7625
11.800000, 89.487, -119.9129
12.060000, 89.617, -120.4482
12.200000, 89.689, -120.7992
12.410000, 89.796, -121.3552
12.500000, 89.839, -121.6010
12.650000, 89.906, -122.0175
12.800000, 89.969, -122.4323
13.150000, 90.099, -123.4024
13.200000, 90.116, -123.5417
13.400000, 90.183, -124.0735
13.600000, 90.247, -124.5674
13.800000, 90.310, -125.0284
14.000000, 90.373, -125.4738
14.300000, 90.469, -126.1931
14.500000, 90.530, -126.6716
14.750000, 90.600, -127.2588
15.000000, 90.662, -127.8216
15.250000, 90.719, -128.3864
15.500000, 90.773, -128.8907
15.750000, 90.827, -129.3334
16.000000, 90.886, -129.7341
16.250000, 90.951, -130.1687
16.500000, 91.020, -130.6190
16.750000, 91.088, -131.0995
17.000000, 91.149, -131.6057
17.250000, 91.201, -132.1414
17.500000, 91.241, -132.6386
17.750000, 91.274, -133.0581
18.000000, 91.306, -133.3882
18.250000, 91.345, -133.6648
18.500000, 91.395, -133.8949
18.750000, 91.459, -134.1231
19.000000, 91.533, -134.3969
19.250000, 91.611, -134.7764
19.500000, 91.684, -135.2339
19.750000, 91.745, -135.7467
20.000000, 91.790, -136.2739
20.299999, 91.824, -136.8937
20.600000, 91.842, -137.4025
20.900000, 91.854, -137.7686
21.200001, 91.871, -138.0201
21.400000, 91.888, -138.1389
21.799999, 91.942, -138.3109
22.000000, 91.979, -138.3958
22.400000, 92.065, -138.6473
22.700001, 92.137, -138.9113
23.000000, 92.208, -139.2537
23.299999, 92.274, -139.6865
23.600000, 92.330, -140.1799
24.000000, 92.381, -140.8783
24.299999, 92.401, -141.3996
24.700001, 92.410, -141.9986
25.000000, 92.408, -142.3466
25.400000, 92.409, -142.6960
25.799999, 92.420, -142.9362
26.200001, 92.446, -143.1480
26.500000, 92.473, -143.3242
26.900000, 92.516, -143.5941
27.200001, 92.550, -143.8370
27.600000, 92.592, -144.2052
28.000000, 92.628, -144.5952
28.500000, 92.662, -145.0824
29.000000, 92.691, -145.4894
29.500000, 92.726, -145.8324
30.000000, 92.768, -146.1756
30.400000, 92.803, -146.4934
30.700001, 92.825, -146.7353
31.100000, 92.850, -147.0383
31.500000, 92.874, -147.3074
32.000000, 92.906, -147.5986
32.500000, 92.940, -147.8865
33.000000, 92.973, -148.1687
33.500000, 93.005, -148.4427
34.000000, 93.042, -148.6964
34.500000, 93.086, -148.9892
35.000000, 93.124, -149.3623
35.500000, 93.147, -149.7780
36.000000, 93.155, -150.1338
36.500000, 93.163, -150.4015
37.000000, 93.181, -150.6299
37.500000, 93.205, -150.9034
38.200001, 93.232, -151.3550
38.700001, 93.244, -151.6678
39.500000, 93.261, -152.0853
40.000000, 93.275, -152.3158
40.599998, 93.295, -152.6112
41.200001, 93.316, -152.8992
41.799999, 93.336, -153.1730
42.500000, 93.362, -153.4828
43.099998, 93.386, -153.7576
43.700001, 93.408, -154.0422
44.400002, 93.428, -154.3829
45.000000, 93.442, -154.6424
45.500000, 93.457, -154.8291
46.200001, 93.481, -155.1218
46.799999, 93.498, -155.4210
47.500000, 93.510, -155.7432
48.200001, 93.522, -156.0330
48.700001, 93.534, -156.2525
49.400002, 93.547, -156.5977
50.000000, 93.552, -156.9165
50.799999, 93.544, -157.3386
51.500000, 93.525, -157.6351
52.200001, 93.514, -157.8269
53.000000, 93.517, -158.0977
53.799999, 93.498, -158.5492
54.500000, 93.447, -158.8355
55.200001, 93.393, -158.9267
56.000000, 93.341, -158.9764
57.000000, 93.248, -158.8506
58.000000, 93.184, -158.1227
59.000000, 93.253, -157.4284
60.000000, 93.342, -157.4153
60.799999, 93.390, -157.5463
61.500000, 93.440, -157.7304
62.200001, 93.468, -158.0121
63.000000, 93.478, -158.0717
64.000000, 93.588, -157.9307
65.000000, 93.701, -158.7168
66.000000, 93.685, -159.4461
67.000000, 93.664, -159.6369
68.000000, 93.647, -159.7071
69.000000, 93.667, -159.6990
70.000000, 93.688, -160.1226
71.000000, 93.645, -160.6001
72.000000, 93.601, -160.8931
73.000000, 93.555, -161.1723
74.000000, 93.514, -161.3093
75.000000, 93.496, -161.4605
76.199997, 93.468, -161.6493
77.500000, 93.446, -161.8332
78.800003, 93.388, -162.1705
80.000000, 93.276, -162.4664
81.199997, 93.114, -162.3845
82.500000, 92.953, -161.7540
83.800003, 92.856, -160.5499
85.000000, 92.873, -159.4252
86.199997, 92.914, -158.3918
87.500000, 93.051, -157.0708
88.500000, 93.191, -156.5481
90.000000, 93.351, -156.2665
91.199997, 93.427, -156.3241
92.500000, 93.462, -156.3154
93.800003, 93.506, -156.3943
95.000000, 93.535, -156.8106
96.199997, 93.537, -157.1249
97.500000, 93.573, -157.2486
98.800003, 93.626, -157.4947
100.000000, 93.671, -157.6805
101.500000, 93.715, -158.0000
103.000000, 93.713, -158.2677
104.400002, 93.708, -158.3892
106.000000, 93.689, -158.8245
107.500000, 93.608, -159.0714
109.000000, 93.535, -158.6127
110.599998, 93.525, -158.0635
112.000000, 93.528, -157.6969
113.800003, 93.533, -157.2999
115.000000, 93.561, -157.1411
117.199997, 93.652, -157.1580
118.000000, 93.690, -157.3015
120.599998, 93.725, -157.1317
122.000000, 93.788, -156.7354
124.099998, 93.886, -156.6366
125.000000, 93.907, -156.7532
126.500000, 93.914, -156.7424
128.000000, 93.933, -156.6398
131.500000, 93.942, -156.8423
132.000000, 93.941, -156.8493
134.000000, 93.959, -156.9651
136.000000, 93.989, -157.1006
138.000000, 94.019, -157.0926
140.000000, 94.025, -157.0087
143.000000, 94.009, -157.0481
145.000000, 93.993, -157.2008
147.500000, 93.983, -157.0418
150.000000, 94.000, -156.7969
152.500000, 93.988, -156.9185
155.000000, 93.995, -156.7909
157.500000, 94.023, -156.7371
160.000000, 94.020, -156.7896
162.500000, 94.046, -157.0232
165.000000, 94.074, -157.2761
167.500000, 94.085, -156.9862
170.000000, 94.061, -156.6243
172.500000, 94.039, -156.5095
175.000000, 94.050, -156.6880
177.500000, 94.074, -156.9146
180.000000, 94.075, -157.0638
182.500000, 94.064, -156.7600
185.000000, 94.062, -156.2056
187.500000, 94.048, -155.9785
190.000000, 94.026, -155.9818
192.500000, 94.048, -156.2607
195.000000, 94.031, -156.2484
197.500000, 93.991, -155.7499
200.000000, 93.978, -155.3018
203.000000, 93.992, -155.1616
206.000000, 93.966, -154.8462
209.000000, 93.928, -154.4058
212.000000, 93.923, -154.5125
214.000000, 93.932, -154.5966
218.000000, 93.962, -154.2668
220.000000, 93.954, -154.1708
224.000000, 93.909, -154.0854
227.000000, 93.937, -153.8807
230.000000, 93.975, -153.7272
233.000000, 93.970, -153.6143
236.000000, 93.907, -153.6316
240.000000, 93.744, -153.7196
243.000000, 93.621, -153.5062
247.000000, 93.656, -152.7612
250.000000, 93.757, -153.1865
254.000000, 93.808, -153.1680
258.000000, 93.923, -151.6676
262.000000, 93.945, -150.8414
265.000000, 93.913, -150.6755
269.000000, 93.904, -150.4695
272.000000, 93.896, -150.4052
276.000000, 93.866, -150.4028
280.000000, 93.847, -149.9071
285.000000, 93.834, -149.0082
290.000000, 93.849, -148.6823
295.000000, 93.860, -148.2956
300.000000, 93.877, -148.3336
304.000000, 93.849, -148.1555
307.000000, 93.825, -147.8650
311.000000, 93.817, -147.4541
315.000000, 93.836, -147.0440
320.000000, 93.853, -146.6269
325.000000, 93.854, -146.4722
330.000000, 93.860, -146.0366
335.000000, 93.865, -145.3923
340.000000, 93.853, -144.9646
345.000000, 93.870, -144.8933
350.000000, 93.848, -144.2249
355.000000, 93.867, -143.7286
360.000000, 93.899, -143.7585
365.000000, 93.854, -143.6677
370.000000, 93.821, -143.3203
375.000000, 93.816, -142.9105
382.000000, 93.822, -142.2495
387.000000, 93.817, -141.8466
395.000000, 93.815, -141.4494
400.000000, 93.814, -140.8688
406.000000, 93.794, -140.2489
412.000000, 93.790, -140.0199
418.000000, 93.797, -139.6126
425.000000, 93.760, -139.5932
431.000000, 93.720, -139.5626
437.000000, 93.650, -139.2644
444.000000, 93.542, -138.4026
450.000000, 93.463, -137.6040
455.000000, 93.404, -136.8598
462.000000, 93.354, -135.6751
468.000000, 93.321, -134.8608
475.000000, 93.293, -133.9298
482.000000, 93.302, -133.0426
487.000000, 93.329, -132.3195
494.000000, 93.365, -131.2870
500.000000, 93.370, -130.6665
508.000000, 93.361, -129.8523
515.000000, 93.384, -129.1519
522.000000, 93.425, -128.4524
530.000000, 93.478, -127.4784
538.000000, 93.478, -126.7229
545.000000, 93.467, -126.2570
552.000000, 93.449, -125.6391
560.000000, 93.427, -124.6012
570.000000, 93.450, -123.6363
580.000000, 93.515, -122.3796
590.000000, 93.541, -120.8934
600.000000, 93.595, -119.8866
608.000000, 93.654, -119.3174
615.000000, 93.693, -118.7840
622.000000, 93.716, -118.1700
630.000000, 93.730, -117.5422
640.000000, 93.747, -116.8135
650.000000, 93.766, -116.1427
660.000000, 93.738, -115.6160
670.000000, 93.714, -114.6409
680.000000, 93.786, -113.7914
690.000000, 93.864, -113.2911
700.000000, 93.879, -112.4434
710.000000, 93.848, -111.2193
720.000000, 93.827, -110.2149
730.000000, 93.830, -109.2979
740.000000, 93.834, -108.2573
750.000000, 93.841, -107.2588
762.000000, 93.871, -106.0584
775.000000, 93.925, -104.7460
788.000000, 94.038, -103.4869
800.000000, 94.115, -102.7704
812.000000, 94.149, -102.1532
825.000000, 94.167, -101.4351
838.000000, 94.171, -100.6178
850.000000, 94.159, -99.8019
862.000000, 94.160, -98.8213
875.000000, 94.174, -97.8871
885.000000, 94.161, -97.2639
900.000000, 94.120, -96.0180
912.000000, 94.110, -95.0153
925.000000, 94.107, -93.9055
938.000000, 94.114, -92.8616
950.000000, 94.135, -91.8182
962.000000, 94.163, -90.7901
975.000000, 94.179, -89.7971
988.000000, 94.191, -88.7723
1000.000000, 94.201, -87.9462
1015.000000, 94.173, -87.1554
1030.000000, 94.129, -86.0325
1044.000000, 94.105, -84.7118
1060.000000, 94.094, -83.3193
1075.000000, 94.071, -82.0706
1090.000000, 94.053, -80.8868
1106.000000, 94.035, -79.5571
1120.000000, 93.956, -78.3880
1138.000000, 93.850, -76.1156
1150.000000, 93.866, -74.6248
1172.000000, 93.935, -72.6169
1180.000000, 93.927, -71.8313
1206.000000, 93.901, -68.5993
1220.000000, 93.962, -66.8232
1241.000000, 94.077, -65.0592
1250.000000, 94.089, -64.3901
1265.000000, 94.085, -62.9209
1280.000000, 94.107, -61.2683
1315.000000, 94.176, -57.8221
1320.000000, 94.184, -57.2646
1340.000000, 94.255, -54.9741
1360.000000, 94.332, -53.3542
1380.000000, 94.310, -51.6836
1400.000000, 94.322, -49.2783
1430.000000, 94.420, -46.0133
1450.000000, 94.485, -43.6865
1475.000000, 94.615, -40.7597
1500.000000, 94.763, -37.7367
1525.000000, 95.001, -35.1210
1550.000000, 95.208, -33.2716
1575.000000, 95.392, -31.0561
1600.000000, 95.589, -29.0888
1625.000000, 95.729, -27.2935
1650.000000, 95.874, -25.3218
1675.000000, 96.027, -23.4403
1700.000000, 96.166, -21.6123
1725.000000, 96.267, -19.9040
1750.000000, 96.336, -17.7601
1775.000000, 96.472, -15.2285
1800.000000, 96.661, -12.8460
1825.000000, 96.878, -10.6921
1850.000000, 97.093, -8.7366
1875.000000, 97.324, -6.9260
1900.000000, 97.532, -5.3478
1925.000000, 97.718, -3.7923
1950.000000, 97.901, -2.1627
1975.000000, 98.093, -0.4385
2000.000000, 98.303, 1.2097
2030.000000, 98.564, 3.0635
2060.000000, 98.845, 4.7584
2090.000000, 99.124, 6.0741
2120.000000, 99.374, 7.1742
2140.000000, 99.523, 7.8289
2180.000000, 99.766, 9.0616
2200.000000, 99.859, 9.7325
2240.000000, 100.041, 11.3912
2270.000000, 100.180, 12.6609
2300.000000, 100.302, 14.1248
2330.000000, 100.467, 15.8404
2360.000000, 100.683, 17.3324
2400.000000, 100.973, 18.9638
2430.000000, 101.189, 19.9651
2470.000000, 101.437, 21.0503
2500.000000, 101.617, 21.8097
2540.000000, 101.818, 22.5765
2580.000000, 101.973, 23.5540
2620.000000, 102.132, 24.5766
2650.000000, 102.255, 25.3399
2690.000000, 102.418, 26.1167
2720.000000, 102.515, 26.5533
2760.000000, 102.609, 27.0617
2800.000000, 102.639, 27.5493
2850.000000, 102.596, 28.6405
2900.000000, 102.547, 30.3659
2950.000000, 102.540, 32.6238
3000.000000, 102.620, 34.9148
3040.000000, 102.713, 36.5373
3070.000000, 102.783, 37.6020
3110.000000, 102.856, 38.9003
3150.000000, 102.907, 40.2544
3200.000000, 102.976, 42.0883
3250.000000, 103.058, 44.0000
3300.000000, 103.177, 45.9429
3350.000000, 103.322, 47.5749
3400.000000, 103.462, 48.9728
3450.000000, 103.592, 50.1812
3500.000000, 103.705, 51.2064
3550.000000, 103.813, 52.1041
3600.000000, 103.908, 52.6737
3650.000000, 103.957, 52.9596
3700.000000, 103.958, 53.1404
3750.000000, 103.904, 53.1045
3820.000000, 103.688, 53.1870
3870.000000, 103.469, 53.5509
3950.000000, 103.056, 54.5955
4000.000000, 102.767, 55.4632
4060.000000, 102.360, 56.6648
4120.000000, 101.884, 58.3784
4180.000000, 101.377, 60.8114
4250.000000, 100.821, 64.3937
4310.000000, 100.388, 67.7641
4370.000000, 99.964, 71.1674
4440.000000, 99.406, 75.3750
4500.000000, 98.893, 79.7711
4550.000000, 98.497, 83.9669
4620.000000, 97.992, 90.3052
4680.000000, 97.582, 96.2341
4750.000000, 97.151, 104.0950
4820.000000, 96.869, 113.0247
4870.000000, 96.791, 119.6447
4940.000000, 96.820, 128.9211
5000.000000, 96.948, 137.0307
5080.000000, 97.329, 148.2734
5150.000000, 97.937, 158.3031
5220.000000, 98.870, 167.7562
5300.000000, 100.273, 176.5239
5380.000000, 101.848, -177.7367
5450.000000, 103.219, -175.1306
5520.000000, 104.496, -174.4684
5600.000000, 105.778, -175.5998
5700.000000, 107.072, -179.1266
5800.000000, 107.959, 175.6935
5900.000000, 108.426, 169.7507
6000.000000, 108.478, 163.8398
6080.000000, 108.256, 159.6273
6150.000000, 107.900, 156.5356
6220.000000, 107.418, 154.1309
6300.000000, 106.751, 152.3511
6400.000000, 105.811, 151.5870
6500.000000, 104.810, 152.4159
6600.000000, 103.806, 154.6657
6700.000000, 102.842, 158.1364
6800.000000, 101.945, 162.5634
6900.000000, 101.114, 167.7172
7000.000000, 100.347, 173.5536
7100.000000, 99.657, -179.9810
7200.000000, 99.055, -172.9936
7300.000000, 98.544, -165.5576
7400.000000, 98.136, -157.6387
7500.000000, 97.873, -149.2757
7620.000000, 97.808, -139.0702
7750.000000, 98.080, -128.6905
7880.000000, 98.655, -120.2487
8000.000000, 99.305, -114.9313
8120.000000, 99.908, -112.0792
8250.000000, 100.356, -111.4064
8380.000000, 100.465, -112.6736
8500.000000, 100.167, -114.8348
8620.000000, 99.426, -116.9994
8750.000000, 98.118, -118.1777
8850.000000, 96.768, -117.4938
9000.000000, 94.232, -111.7856
9120.000000, 91.995, -100.2776
9250.000000, 90.214, -79.3688
9380.000000, 89.906, -56.9721
9500.000000, 90.506, -41.4769
9620.000000, 91.255, -31.0633
9750.000000, 91.843, -23.0990
9880.000000, 92.130, -16.4121
10000.000000, 92.170, -10.1556
10150.000000, 92.075, -1.2612
10300.000000, 91.989, 9.0067
10440.000000, 92.057, 19.5557
10600.000000, 92.422, 32.0250
10750.000000, 93.127, 43.2014
10900.000000, 94.218, 52.4279
11060.000000, 95.632, 57.9165
11200.000000, 96.694, 57.8417
11380.000000, 97.087, 52.3934
11500.000000, 96.432, 48.4681
11720.000000, 93.621, 50.5453
11800.000000, 92.416, 56.0002
12060.000000, 90.038, 89.1043
12200.000000, 90.461, 108.8957
12410.000000, 92.537, 129.4872
12500.000000, 93.581, 134.5618
12650.000000, 95.177, 138.6379
12800.000000, 96.306, 138.3943
13150.000000, 96.321, 134.2025
13200.000000, 96.094, 134.4194
13400.000000, 95.006, 138.4933
13600.000000, 94.016, 146.6614
13800.000000, 93.342, 157.0831
14000.000000, 93.048, 168.3264
14300.000000, 93.341, -176.3907
14500.000000, 93.861, -169.3694
14750.000000, 94.446, -165.7256
15000.000000, 94.275, -167.3483
15250.000000, 92.683, -169.4695
15500.000000, 89.753, -164.3539
15750.000000, 86.446, -147.0118
16000.000000, 84.061, -118.3326
16250.000000, 83.603, -84.8514
16500.000000, 85.118, -55.3615
16750.000000, 87.859, -35.7891
17000.000000, 90.727, -28.5422
17250.000000, 92.644, -31.8177
17500.000000, 92.921, -39.7667
17750.000000, 91.647, -45.1897
18000.000000, 89.510, -44.2855
18250.000000, 87.189, -36.9686
18500.000000, 85.053, -24.7725
18750.000000, 83.282, -8.9984
19000.000000, 82.038, 9.3102
19250.000000, 81.499, 27.9771
19500.000000, 81.560, 43.4182
19750.000000, 81.662, 53.6936
20000.000000, 81.249, 60.6636
20300.000000, 79.937, 68.7036
20600.000000, 77.963, 78.0960
20900.000000, 75.390, 88.8582
21200.000000, 72.084, 102.0436
21400.000000, 69.387, 113.9349
21800.000000, 63.228, 159.3933
22000.000000, 60.942, -166.8518
22400.000000, 59.037, -121.0382
22700.000000, 57.470, -103.3169
23000.000000, 54.486, -92.4418
23300.000000, 49.802, -83.6560
23600.000000, 43.707, -74.3468
24000.000000, 36.757, -51.7139
