* Measurement data measured by REW V5.31
* Source: Headset (DS by VECLAN.COM), MICROPHONE (Master Volume), L, volume: 0.720. Timing signal peak level -22.6 dBFS, measurement signal peak level -22.0 dBFS
* Format: 4M Log Swept Sine, 1 sweep at -12.0 dBFS using an acoustic timing reference
* Dated: Apr 21, 2024 9:14:29 AM
* REW Settings:
*  C-weighting compensation: Off
*  Target level: 75.0 dB
* Note: ; Delay -0.0675 ms (-23 mm, -0.91 in) using estimated IR delay relative to Acoustic reference played from HEADPHONE R with no timing offset
* Measurement: Logitech G331 R5
* Smoothing: 1/24 octave
* Frequency Step: 1/48 octave
* Start Frequency: 1.000 Hz
*
* Freq(Hz), SPL(dB), Phase(degrees)
1.000000, 64.795, -125.8923
1.015000, 64.758, -125.0808
1.030000, 64.720, -124.2493
1.044000, 64.684, -123.4537
1.060000, 64.642, -122.5196
1.075000, 64.601, -121.6180
1.090000, 64.560, -120.6902
1.106000, 64.515, -119.6748
1.120000, 64.473, -118.7714
1.138000, 64.417, -117.5935
1.150000, 64.377, -116.7969
1.172000, 64.300, -115.3155
1.180000, 64.271, -114.7737
1.206000, 64.174, -112.9707
1.220000, 64.119, -111.9709
1.241000, 64.036, -110.4289
1.250000, 64.000, -109.7514
1.265000, 63.939, -108.5986
1.280000, 63.877, -107.4146
1.315000, 63.733, -104.5227
1.320000, 63.712, -104.0940
1.340000, 63.630, -102.3391
1.360000, 63.549, -100.5172
1.380000, 63.470, -98.6668
1.400000, 63.393, -96.7649
1.430000, 63.283, -93.7923
1.450000, 63.214, -91.7359
1.475000, 63.129, -89.0846
1.500000, 63.041, -86.3387
1.525000, 62.946, -83.5061
1.550000, 62.847, -80.6066
1.575000, 62.746, -77.6855
1.600000, 62.646, -74.7855
1.625000, 62.549, -71.8941
1.650000, 62.458, -69.0383
1.675000, 62.375, -66.2437
1.700000, 62.302, -63.5342
1.725000, 62.242, -60.9313
1.750000, 62.198, -58.4530
1.775000, 62.172, -56.1309
1.800000, 62.167, -53.9916
1.825000, 62.184, -52.0015
1.850000, 62.227, -50.1336
1.875000, 62.296, -48.3500
1.900000, 62.388, -46.6437
1.925000, 62.501, -45.0205
1.950000, 62.631, -43.4858
1.975000, 62.775, -42.0605
2.000000, 62.930, -40.7631
2.030000, 63.126, -39.3320
2.060000, 63.329, -38.0404
2.090000, 63.531, -36.8869
2.120000, 63.729, -35.8696
2.140000, 63.855, -35.2656
2.180000, 64.089, -34.2502
2.200000, 64.195, -33.8402
2.240000, 64.399, -33.1332
2.270000, 64.548, -32.6785
2.300000, 64.697, -32.2810
2.330000, 64.843, -31.9375
2.360000, 64.987, -31.6456
2.400000, 65.175, -31.3808
2.430000, 65.312, -31.2437
2.470000, 65.488, -31.1313
2.500000, 65.615, -31.0986
2.540000, 65.777, -31.1229
2.580000, 65.929, -31.2406
2.620000, 66.072, -31.4618
2.650000, 66.174, -31.6625
2.690000, 66.303, -31.9687
2.720000, 66.395, -32.2221
2.760000, 66.512, -32.5844
2.800000, 66.623, -33.0111
2.850000, 66.755, -33.5785
2.900000, 66.880, -34.1729
2.950000, 66.999, -34.7990
3.000000, 67.109, -35.5013
3.040000, 67.190, -36.1037
3.070000, 67.247, -36.5676
3.110000, 67.319, -37.1967
3.150000, 67.388, -37.8325
3.200000, 67.470, -38.6598
3.250000, 67.549, -39.4972
3.300000, 67.625, -40.3293
3.350000, 67.698, -41.1682
3.400000, 67.766, -42.0562
3.450000, 67.830, -42.9682
3.500000, 67.891, -43.8821
3.550000, 67.950, -44.7898
3.600000, 68.007, -45.7123
3.650000, 68.064, -46.6316
3.700000, 68.120, -47.5423
3.750000, 68.174, -48.4536
3.820000, 68.248, -49.7654
3.870000, 68.299, -50.7052
3.950000, 68.380, -52.1894
4.000000, 68.432, -53.1226
4.060000, 68.495, -54.2397
4.120000, 68.558, -55.3498
4.180000, 68.622, -56.4610
4.250000, 68.697, -57.7775
4.310000, 68.761, -58.8888
4.370000, 68.826, -59.9873
4.440000, 68.901, -61.2880
4.500000, 68.965, -62.3987
4.550000, 69.019, -63.3180
4.620000, 69.095, -64.6156
4.680000, 69.158, -65.7123
4.750000, 69.232, -66.9623
4.820000, 69.304, -68.2151
4.870000, 69.355, -69.1086
4.940000, 69.426, -70.3432
5.000000, 69.485, -71.3918
5.080000, 69.561, -72.7528
5.150000, 69.624, -73.8951
5.220000, 69.684, -75.0319
5.300000, 69.749, -76.3069
5.380000, 69.810, -77.5301
5.450000, 69.862, -78.5578
5.520000, 69.911, -79.5215
5.600000, 69.964, -80.5752
5.700000, 70.026, -81.8280
5.800000, 70.087, -82.9724
5.900000, 70.148, -83.9988
6.000000, 70.207, -84.9091
6.080000, 70.256, -85.5756
6.150000, 70.301, -86.0999
6.220000, 70.350, -86.5848
6.300000, 70.410, -87.0717
6.400000, 70.490, -87.5917
6.500000, 70.579, -88.0516
6.600000, 70.678, -88.4640
6.700000, 70.788, -88.8335
6.800000, 70.908, -89.1587
6.900000, 71.035, -89.4852
7.000000, 71.170, -89.8258
7.100000, 71.313, -90.1798
7.200000, 71.461, -90.5457
7.300000, 71.610, -90.9510
7.400000, 71.757, -91.3977
7.500000, 71.904, -91.8871
7.620000, 72.075, -92.5052
7.750000, 72.248, -93.2136
7.880000, 72.410, -93.9694
8.000000, 72.547, -94.6675
8.120000, 72.670, -95.3540
8.250000, 72.788, -96.0874
8.380000, 72.893, -96.7755
8.500000, 72.979, -97.3535
8.620000, 73.055, -97.8773
8.750000, 73.130, -98.3740
8.850000, 73.186, -98.6975
9.000000, 73.265, -99.0895
9.120000, 73.329, -99.3399
9.250000, 73.403, -99.5522
9.380000, 73.481, -99.7074
9.500000, 73.558, -99.8277
9.620000, 73.643, -99.9293
9.750000, 73.740, -100.0278
9.880000, 73.836, -100.1429
10.000000, 73.921, -100.2649
10.150000, 74.024, -100.4829
10.300000, 74.124, -100.7450
10.440000, 74.215, -101.0331
10.600000, 74.319, -101.4175
10.750000, 74.417, -101.8356
10.900000, 74.515, -102.3071
11.060000, 74.618, -102.8955
11.200000, 74.706, -103.4970
11.380000, 74.811, -104.3283
11.500000, 74.876, -104.9169
11.720000, 74.981, -106.0500
11.800000, 75.016, -106.4755
12.060000, 75.113, -107.9085
12.200000, 75.156, -108.7201
12.410000, 75.208, -109.9096
12.500000, 75.224, -110.3982
12.650000, 75.244, -111.1793
12.800000, 75.256, -111.9076
13.150000, 75.272, -113.4141
13.200000, 75.275, -113.6104
13.400000, 75.287, -114.3250
13.600000, 75.306, -114.9417
13.800000, 75.334, -115.4779
14.000000, 75.371, -115.9637
14.300000, 75.440, -116.7020
14.500000, 75.490, -117.1609
14.750000, 75.554, -117.6819
15.000000, 75.621, -118.1265
15.250000, 75.696, -118.5231
15.500000, 75.782, -118.8128
15.750000, 75.883, -119.0157
16.000000, 76.002, -119.1848
16.250000, 76.140, -119.4354
16.500000, 76.289, -119.7778
16.750000, 76.434, -120.2401
17.000000, 76.564, -120.8053
17.250000, 76.670, -121.4384
17.500000, 76.743, -122.0208
17.750000, 76.790, -122.4479
18.000000, 76.823, -122.6521
18.250000, 76.862, -122.6326
18.500000, 76.927, -122.4236
18.750000, 77.033, -122.1485
19.000000, 77.182, -121.9666
19.250000, 77.360, -122.0595
19.500000, 77.544, -122.4864
19.750000, 77.705, -123.2518
20.000000, 77.819, -124.2806
20.299999, 77.872, -125.6950
20.600000, 77.827, -126.9961
20.900000, 77.704, -127.9002
21.200001, 77.541, -128.2251
21.400000, 77.437, -128.0905
21.799999, 77.307, -127.1586
22.000000, 77.299, -126.5392
22.400000, 77.389, -125.5063
22.700001, 77.510, -125.1277
23.000000, 77.634, -125.1243
23.299999, 77.735, -125.3982
23.600000, 77.805, -125.7651
24.000000, 77.869, -126.1711
24.299999, 77.921, -126.3822
24.700001, 78.024, -126.6285
25.000000, 78.127, -126.9211
25.400000, 78.280, -127.6256
25.799999, 78.413, -128.6695
26.200001, 78.502, -129.9212
26.500000, 78.536, -130.8798
26.900000, 78.548, -132.0481
27.200001, 78.540, -132.8018
27.600000, 78.519, -133.6168
28.000000, 78.498, -134.2101
28.500000, 78.487, -134.6808
29.000000, 78.514, -134.9353
29.500000, 78.586, -135.1919
30.000000, 78.679, -135.6051
30.400000, 78.748, -136.0521
30.700001, 78.793, -136.4030
31.100000, 78.850, -136.8657
31.500000, 78.912, -137.3701
32.000000, 78.985, -138.1642
32.500000, 79.014, -139.1495
33.000000, 78.971, -140.0052
33.500000, 78.892, -140.3767
34.000000, 78.857, -140.2652
34.500000, 78.901, -140.1065
35.000000, 78.980, -140.2402
35.500000, 79.040, -140.5879
36.000000, 79.082, -140.8900
36.500000, 79.135, -141.1161
37.000000, 79.200, -141.3989
37.500000, 79.250, -141.7256
38.200001, 79.301, -141.8707
38.700001, 79.383, -141.8038
39.500000, 79.577, -142.2616
40.000000, 79.643, -142.9409
40.599998, 79.633, -143.5941
41.200001, 79.602, -143.7728
41.799999, 79.606, -143.7923
42.500000, 79.614, -144.0320
43.099998, 79.592, -144.3073
43.700001, 79.567, -144.5443
44.400002, 79.558, -145.0130
45.000000, 79.533, -145.7554
45.500000, 79.468, -146.4647
46.200001, 79.324, -147.0241
46.799999, 79.248, -146.8563
47.500000, 79.318, -146.5226
48.200001, 79.483, -146.8409
48.700001, 79.583, -147.3713
49.400002, 79.687, -148.0421
50.000000, 79.775, -148.4362
50.799999, 79.886, -148.9000
51.500000, 79.952, -149.1886
52.200001, 80.007, -149.2838
53.000000, 80.082, -149.4673
53.799999, 80.114, -150.0539
54.500000, 80.062, -150.4049
55.200001, 80.063, -150.0771
56.000000, 80.308, -150.2331
57.000000, 80.592, -153.1779
58.000000, 80.579, -156.1377
59.000000, 80.621, -159.1424
60.000000, 80.209, -162.1890
60.799999, 79.702, -160.7153
61.500000, 79.673, -157.8790
62.200001, 79.861, -156.8658
63.000000, 79.886, -157.3339
64.000000, 79.737, -157.4535
65.000000, 79.532, -158.1974
66.000000, 79.048, -157.9497
67.000000, 78.834, -155.0251
68.000000, 79.048, -153.5401
69.000000, 79.207, -153.4564
70.000000, 79.348, -152.8660
71.000000, 79.536, -152.0739
72.000000, 79.738, -151.4010
73.000000, 79.906, -151.1157
74.000000, 79.995, -151.1222
75.000000, 80.025, -151.2735
76.199997, 80.017, -151.6266
77.500000, 80.003, -152.1278
78.800003, 79.997, -152.8450
80.000000, 79.955, -153.4566
81.199997, 79.890, -153.7109
82.500000, 79.800, -153.5993
83.800003, 79.732, -153.0431
85.000000, 79.728, -152.4741
86.199997, 79.766, -152.0651
87.500000, 79.849, -151.7529
88.500000, 79.927, -151.7309
90.000000, 80.012, -151.7554
91.199997, 80.078, -151.7973
92.500000, 80.125, -152.1139
93.800003, 80.103, -152.5947
95.000000, 80.051, -152.5449
96.199997, 80.111, -152.3779
97.500000, 80.193, -153.2163
98.800003, 80.148, -154.0828
100.000000, 80.099, -154.1689
101.500000, 80.075, -154.2774
103.000000, 79.931, -154.0999
104.400002, 79.793, -152.6213
106.000000, 79.861, -150.5771
107.500000, 80.014, -150.4106
109.000000, 80.025, -150.6797
110.599998, 80.069, -150.4263
112.000000, 80.152, -150.3687
113.800003, 80.242, -150.7000
115.000000, 80.276, -151.0925
117.199997, 80.353, -151.9591
118.000000, 80.394, -152.2372
120.599998, 80.552, -152.2437
122.000000, 80.610, -151.8020
124.099998, 80.496, -150.7631
125.000000, 80.425, -150.4991
126.500000, 80.248, -150.9033
128.000000, 80.039, -151.4421
131.500000, 80.226, -151.0689
132.000000, 80.301, -151.0985
134.000000, 80.509, -151.2271
136.000000, 80.571, -151.0670
138.000000, 80.599, -151.0092
140.000000, 80.635, -151.0729
143.000000, 80.659, -150.7815
145.000000, 80.650, -150.5260
147.500000, 80.701, -150.4532
150.000000, 80.847, -150.4658
152.500000, 80.946, -150.6784
155.000000, 80.926, -150.9942
157.500000, 80.947, -151.1390
160.000000, 81.080, -151.0496
162.500000, 81.061, -151.3956
165.000000, 80.825, -151.0205
167.500000, 80.664, -150.8600
170.000000, 80.634, -150.6711
172.500000, 80.709, -150.4882
175.000000, 80.740, -150.4781
177.500000, 80.749, -150.2284
180.000000, 80.745, -149.9730
182.500000, 80.674, -149.6684
185.000000, 80.591, -149.4008
187.500000, 80.527, -149.3039
190.000000, 80.471, -148.9455
192.500000, 80.383, -148.2390
195.000000, 80.310, -147.5099
197.500000, 80.348, -147.1905
200.000000, 80.460, -147.1967
203.000000, 80.511, -146.5834
206.000000, 80.492, -145.3515
209.000000, 80.485, -144.7934
212.000000, 80.518, -144.5263
214.000000, 80.568, -144.3067
218.000000, 80.660, -144.0598
220.000000, 80.686, -143.9826
224.000000, 80.705, -143.8022
227.000000, 80.703, -143.5777
230.000000, 80.688, -143.4462
233.000000, 80.688, -143.5031
236.000000, 80.727, -143.2463
240.000000, 80.735, -142.6550
243.000000, 80.588, -142.7802
247.000000, 80.474, -141.7516
250.000000, 80.506, -140.8582
254.000000, 80.346, -140.6326
258.000000, 80.231, -139.2042
262.000000, 80.257, -137.5953
265.000000, 80.270, -136.5853
269.000000, 80.330, -135.2975
272.000000, 80.421, -134.3549
276.000000, 80.573, -133.2361
280.000000, 80.692, -132.2503
285.000000, 80.775, -131.8540
290.000000, 80.947, -131.6362
295.000000, 81.001, -131.3028
300.000000, 81.081, -130.3575
304.000000, 81.144, -129.5421
307.000000, 81.167, -129.0176
311.000000, 81.209, -128.5639
315.000000, 81.277, -128.0585
320.000000, 81.359, -127.2576
325.000000, 81.394, -126.4576
330.000000, 81.418, -125.3599
335.000000, 81.424, -124.7962
340.000000, 81.499, -123.8651
345.000000, 81.563, -123.1620
350.000000, 81.611, -122.4033
355.000000, 81.651, -121.6943
360.000000, 81.692, -120.9835
365.000000, 81.734, -120.0871
370.000000, 81.792, -119.2328
375.000000, 81.860, -118.4346
382.000000, 81.932, -117.1235
387.000000, 81.973, -116.1106
395.000000, 82.094, -114.5476
400.000000, 82.174, -113.5789
406.000000, 82.260, -112.2823
412.000000, 82.350, -111.0811
418.000000, 82.452, -109.9584
425.000000, 82.607, -108.5972
431.000000, 82.753, -107.4573
437.000000, 82.902, -106.3018
444.000000, 83.073, -105.0269
450.000000, 83.230, -104.0379
455.000000, 83.372, -103.2036
462.000000, 83.580, -102.1314
468.000000, 83.741, -101.3732
475.000000, 83.905, -100.5215
482.000000, 84.080, -99.5847
487.000000, 84.206, -98.8480
494.000000, 84.385, -97.8107
500.000000, 84.560, -96.9492
508.000000, 84.807, -96.0172
515.000000, 85.018, -95.2582
522.000000, 85.229, -94.4157
530.000000, 85.463, -93.5607
538.000000, 85.689, -92.8321
545.000000, 85.901, -92.1309
552.000000, 86.129, -91.4383
560.000000, 86.402, -90.8401
570.000000, 86.717, -90.3296
580.000000, 86.978, -89.6470
590.000000, 87.273, -88.9122
600.000000, 87.596, -88.4997
608.000000, 87.827, -88.3141
615.000000, 88.019, -88.0315
622.000000, 88.216, -87.7202
630.000000, 88.446, -87.4815
640.000000, 88.726, -87.2729
650.000000, 89.006, -86.9736
660.000000, 89.308, -86.7198
670.000000, 89.616, -86.6747
680.000000, 89.916, -86.7095
690.000000, 90.226, -86.8688
700.000000, 90.516, -87.3224
710.000000, 90.776, -87.9090
720.000000, 91.015, -88.5036
730.000000, 91.237, -89.1497
740.000000, 91.424, -89.7981
750.000000, 91.576, -90.2946
762.000000, 91.761, -90.6364
775.000000, 91.989, -90.9628
788.000000, 92.228, -91.3636
800.000000, 92.449, -91.8308
812.000000, 92.655, -92.2887
825.000000, 92.882, -92.7321
838.000000, 93.128, -93.3890
850.000000, 93.330, -94.2882
862.000000, 93.481, -95.1627
875.000000, 93.626, -95.8925
885.000000, 93.744, -96.3859
900.000000, 93.943, -97.1215
912.000000, 94.107, -97.9180
925.000000, 94.238, -98.9826
938.000000, 94.327, -99.8537
950.000000, 94.416, -100.4908
962.000000, 94.510, -101.1707
975.000000, 94.602, -101.9462
988.000000, 94.675, -102.7450
1000.000000, 94.723, -103.4770
1015.000000, 94.755, -104.1682
1030.000000, 94.811, -104.5977
1044.000000, 94.871, -105.1441
1060.000000, 94.921, -105.6712
1075.000000, 94.972, -106.0048
1090.000000, 95.054, -106.2241
1106.000000, 95.200, -106.6368
1120.000000, 95.326, -107.3331
1138.000000, 95.445, -108.5422
1150.000000, 95.479, -109.5144
1172.000000, 95.368, -111.0931
1180.000000, 95.277, -111.2333
1206.000000, 95.195, -109.2266
1220.000000, 95.416, -108.2641
1241.000000, 95.814, -108.8078
1250.000000, 95.944, -109.4886
1265.000000, 96.087, -110.8557
1280.000000, 96.154, -112.1944
1315.000000, 96.172, -114.7292
1320.000000, 96.164, -115.0587
1340.000000, 96.095, -116.3581
1360.000000, 95.938, -117.3636
1380.000000, 95.757, -117.7768
1400.000000, 95.601, -117.7190
1430.000000, 95.505, -117.0283
1450.000000, 95.512, -117.0626
1475.000000, 95.440, -117.7006
1500.000000, 95.231, -118.1189
1525.000000, 94.873, -117.9177
1550.000000, 94.382, -115.6208
1575.000000, 94.126, -109.4109
1600.000000, 94.821, -101.7260
1625.000000, 96.079, -100.4781
1650.000000, 96.857, -104.4705
1675.000000, 97.106, -108.8805
1700.000000, 97.058, -112.4220
1725.000000, 96.854, -114.7789
1750.000000, 96.615, -116.0190
1775.000000, 96.398, -116.6470
1800.000000, 96.198, -116.8886
1825.000000, 96.028, -116.7800
1850.000000, 95.875, -116.7062
1875.000000, 95.704, -116.2901
1900.000000, 95.577, -115.6676
1925.000000, 95.467, -115.1000
1950.000000, 95.359, -114.3896
1975.000000, 95.277, -113.5720
2000.000000, 95.222, -112.9373
2030.000000, 95.131, -112.3640
2060.000000, 95.008, -111.7805
2090.000000, 94.825, -110.9986
2120.000000, 94.635, -109.5640
2140.000000, 94.544, -108.3946
2180.000000, 94.458, -105.8014
2200.000000, 94.467, -104.7350
2240.000000, 94.414, -103.5571
2270.000000, 94.227, -102.2968
2300.000000, 94.044, -99.9647
2330.000000, 93.972, -97.1188
2360.000000, 93.971, -94.6058
2400.000000, 93.939, -90.8293
2430.000000, 94.039, -87.1788
2470.000000, 94.431, -82.7316
2500.000000, 94.820, -80.5333
2540.000000, 95.295, -78.6711
2580.000000, 95.704, -77.4970
2620.000000, 96.031, -76.4755
2650.000000, 96.269, -75.7790
2690.000000, 96.528, -75.0244
2720.000000, 96.678, -74.2792
2760.000000, 96.881, -72.7797
2800.000000, 97.168, -70.9136
2850.000000, 97.673, -68.9941
2900.000000, 98.237, -68.2008
2950.000000, 98.730, -68.3591
3000.000000, 99.130, -68.8604
3040.000000, 99.384, -69.2807
3070.000000, 99.567, -69.4976
3110.000000, 99.797, -69.9518
3150.000000, 99.970, -70.4094
3200.000000, 100.151, -70.3312
3250.000000, 100.451, -69.8849
3300.000000, 100.823, -70.1468
3350.000000, 101.145, -71.0473
3400.000000, 101.418, -72.0765
3450.000000, 101.669, -73.1568
3500.000000, 101.951, -74.1871
3550.000000, 102.289, -76.1091
3600.000000, 102.454, -79.2307
3650.000000, 102.363, -81.8982
3700.000000, 102.205, -83.3598
3750.000000, 102.111, -84.3861
3820.000000, 102.003, -86.0473
3870.000000, 101.874, -87.3595
3950.000000, 101.539, -89.0326
4000.000000, 101.299, -89.6495
4060.000000, 100.979, -90.2742
4120.000000, 100.585, -90.4970
4180.000000, 100.125, -89.9500
4250.000000, 99.610, -88.0231
4310.000000, 99.252, -85.7133
4370.000000, 98.942, -83.0982
4440.000000, 98.644, -79.3734
4500.000000, 98.489, -75.8280
4550.000000, 98.430, -72.7533
4620.000000, 98.432, -68.3445
4680.000000, 98.530, -64.2639
4750.000000, 98.836, -59.1582
4820.000000, 99.443, -54.4658
4870.000000, 100.037, -52.1995
4940.000000, 100.942, -51.1155
5000.000000, 101.670, -52.0240
5080.000000, 102.404, -55.5576
5150.000000, 102.625, -59.7112
5220.000000, 102.499, -62.6135
5300.000000, 102.314, -63.9248
5380.000000, 102.224, -64.7236
5450.000000, 102.133, -65.4665
5520.000000, 102.006, -66.0074
5600.000000, 101.825, -66.2931
5700.000000, 101.558, -65.9641
5800.000000, 101.332, -64.4984
5900.000000, 101.274, -62.3165
6000.000000, 101.420, -60.3628
6080.000000, 101.663, -59.5209
6150.000000, 101.902, -59.6861
6220.000000, 102.092, -60.6671
6300.000000, 102.195, -62.3320
6400.000000, 102.119, -64.7639
6500.000000, 101.829, -66.7542
6600.000000, 101.429, -67.8038
6700.000000, 101.022, -67.9289
6800.000000, 100.667, -67.6487
6900.000000, 100.330, -67.3519
7000.000000, 99.961, -66.8108
7100.000000, 99.560, -65.7174
7200.000000, 99.157, -63.9980
7300.000000, 98.779, -61.5545
7400.000000, 98.464, -58.4860
7500.000000, 98.243, -54.9112
7620.000000, 98.153, -50.2116
7750.000000, 98.320, -45.0700
7880.000000, 98.663, -40.8715
8000.000000, 99.032, -38.3028
8120.000000, 99.395, -36.5715
8250.000000, 99.837, -35.1751
8380.000000, 100.433, -34.7085
8500.000000, 101.066, -36.1160
8620.000000, 101.648, -39.5397
8750.000000, 102.094, -45.4725
8850.000000, 102.241, -51.2978
9000.000000, 102.102, -61.5384
9120.000000, 101.676, -70.8703
9250.000000, 100.846, -82.3003
9380.000000, 99.505, -95.1830
9500.000000, 97.600, -108.0680
9620.000000, 94.814, -120.3911
9750.000000, 90.628, -130.6821
9880.000000, 85.165, -134.5717
10000.000000, 79.596, -92.3725
10150.000000, 78.511, 28.2873
10300.000000, 81.445, 34.7681
10440.000000, 83.268, 38.4850
10600.000000, 84.354, 44.0546
10750.000000, 85.061, 53.4720
10900.000000, 86.377, 67.0890
11060.000000, 88.844, 78.7048
11200.000000, 91.201, 81.3509
11380.000000, 93.425, 75.9615
11500.000000, 94.145, 70.4214
11720.000000, 94.444, 63.8635
11800.000000, 94.492, 63.0671
12060.000000, 95.013, 61.9593
12200.000000, 95.405, 60.4251
12410.000000, 95.885, 56.2943
12500.000000, 96.023, 53.8099
12650.000000, 96.071, 48.6718
12800.000000, 95.750, 42.8647
13150.000000, 93.778, 36.1854
13200.000000, 93.540, 36.1135
13400.000000, 92.840, 34.6971
13600.000000, 92.006, 31.4704
13800.000000, 90.910, 28.5717
14000.000000, 89.705, 26.1650
14300.000000, 87.800, 23.7295
14500.000000, 86.940, 21.6221
14750.000000, 86.652, 10.6750
15000.000000, 86.231, -15.9371
15250.000000, 84.457, -56.3721
15500.000000, 81.698, -99.0004
15750.000000, 79.802, -127.7163
16000.000000, 79.201, -140.5804
16250.000000, 79.112, -141.5340
16500.000000, 79.871, -133.8106
16750.000000, 81.752, -125.5223
17000.000000, 84.020, -123.3798
17250.000000, 85.819, -128.2808
17500.000000, 86.498, -137.4696
17750.000000, 85.810, -145.9500
18000.000000, 83.947, -147.6152
18250.000000, 81.897, -138.0865
18500.000000, 80.801, -122.0285
18750.000000, 80.634, -104.8574
19000.000000, 81.341, -86.7440
19250.000000, 83.011, -71.4594
19500.000000, 85.064, -63.8369
19750.000000, 86.648, -63.9352
20000.000000, 87.219, -67.5320
20300.000000, 86.937, -70.3706
20600.000000, 86.384, -71.1724
20900.000000, 85.590, -72.4818
21200.000000, 84.257, -74.4992
21400.000000, 83.004, -75.8506
21800.000000, 79.308, -77.8700
22000.000000, 76.552, -77.7805
22400.000000, 68.591, -75.5759
22700.000000, 60.784, -72.8855
23000.000000, 52.043, -71.6631
23300.000000, 43.871, -29.9799
23600.000000, 39.973, -82.9636
24000.000000, 39.205, 94.8919
