* Measurement data measured by REW V5.31
* Source: Headset (DS by VECLAN.COM), MICROPHONE (Master Volume), L, volume: 0.720. Timing signal peak level -19.5 dBFS, measurement signal peak level -19.4 dBFS
* Format: 4M Log Swept Sine, 1 sweep at -12.0 dBFS using an acoustic timing reference
* Dated: Apr 21, 2024 9:20:25 AM
* REW Settings:
*  C-weighting compensation: Off
*  Target level: 75.0 dB
* Note: ; Delay -0.2535 ms (-87 mm, -3.42 in) using estimated IR delay relative to Acoustic reference played from HEADPHONE L with no timing offset
* Measurement: Logitech G331 L5
* Smoothing: 1/24 octave
* Frequency Step: 1/48 octave
* Start Frequency: 1.000 Hz
*
* Freq(Hz), SPL(dB), Phase(degrees)
1.000000, 69.178, -33.0341
1.015000, 69.238, -33.7571
1.030000, 69.297, -34.4723
1.044000, 69.351, -35.1335
1.060000, 69.411, -35.8827
1.075000, 69.466, -36.5801
1.090000, 69.520, -37.2753
1.106000, 69.576, -38.0235
1.120000, 69.628, -38.6965
1.138000, 69.698, -39.5932
1.150000, 69.747, -40.2093
1.172000, 69.840, -41.3774
1.180000, 69.875, -41.8176
1.206000, 69.988, -43.2732
1.220000, 70.049, -44.0694
1.241000, 70.140, -45.2739
1.250000, 70.177, -45.7926
1.265000, 70.238, -46.6583
1.280000, 70.297, -47.5237
1.315000, 70.419, -49.5315
1.320000, 70.434, -49.8160
1.340000, 70.490, -50.9463
1.360000, 70.536, -52.0606
1.380000, 70.570, -53.1956
1.400000, 70.590, -54.3259
1.430000, 70.593, -55.9833
1.450000, 70.573, -57.0644
1.475000, 70.523, -58.4120
1.500000, 70.443, -59.8122
1.525000, 70.335, -61.2829
1.550000, 70.203, -62.8121
1.575000, 70.049, -64.4058
1.600000, 69.877, -66.0664
1.625000, 69.691, -67.7403
1.650000, 69.493, -69.4145
1.675000, 69.287, -71.0766
1.700000, 69.076, -72.7158
1.725000, 68.862, -74.3231
1.750000, 68.651, -75.8904
1.775000, 68.444, -77.4289
1.800000, 68.245, -78.9516
1.825000, 68.056, -80.4326
1.850000, 67.876, -81.9192
1.875000, 67.700, -83.4711
1.900000, 67.527, -85.1014
1.925000, 67.355, -86.8004
1.950000, 67.183, -88.5540
1.975000, 67.011, -90.3645
2.000000, 66.837, -92.2330
2.030000, 66.626, -94.4856
2.060000, 66.410, -96.7272
2.090000, 66.189, -98.9328
2.120000, 65.960, -101.0793
2.140000, 65.803, -102.4672
2.180000, 65.476, -105.1472
2.200000, 65.307, -106.4662
2.240000, 64.961, -109.1853
2.270000, 64.699, -111.3768
2.300000, 64.432, -113.7010
2.330000, 64.160, -116.1410
2.360000, 63.881, -118.6747
2.400000, 63.495, -122.2010
2.430000, 63.194, -124.8895
2.470000, 62.772, -128.4635
2.500000, 62.439, -131.0952
2.540000, 61.968, -134.4950
2.580000, 61.451, -137.8669
2.620000, 60.860, -141.5546
2.650000, 60.369, -144.6306
2.690000, 59.672, -149.1894
2.720000, 59.133, -152.9586
2.760000, 58.418, -158.4402
2.800000, 57.735, -164.4516
2.850000, 56.977, -172.5709
2.900000, 56.379, 178.7345
2.950000, 55.975, 169.1301
3.000000, 55.724, 157.3499
3.040000, 55.611, 145.9714
3.070000, 55.574, 136.5208
3.110000, 55.589, 123.4035
3.150000, 55.674, 110.6458
3.200000, 55.878, 96.3330
3.250000, 56.188, 84.2023
3.300000, 56.619, 73.8227
3.350000, 57.215, 64.5577
3.400000, 57.983, 56.2638
3.450000, 58.871, 49.0408
3.500000, 59.818, 42.8195
3.550000, 60.764, 37.4149
3.600000, 61.651, 32.5874
3.650000, 62.433, 28.1390
3.700000, 63.113, 23.8826
3.750000, 63.726, 19.7472
3.820000, 64.509, 14.2382
3.870000, 65.023, 10.5789
3.950000, 65.786, 5.2022
4.000000, 66.233, 2.0551
4.060000, 66.740, -1.6267
4.120000, 67.207, -5.3005
4.180000, 67.635, -8.9253
4.250000, 68.090, -13.0093
4.310000, 68.452, -16.3083
4.370000, 68.791, -19.4339
4.440000, 69.160, -23.0070
4.500000, 69.448, -26.0813
4.550000, 69.669, -28.6277
4.620000, 69.952, -32.1188
4.680000, 70.174, -34.9692
4.750000, 70.412, -38.1030
4.820000, 70.626, -41.1553
4.870000, 70.763, -43.3394
4.940000, 70.934, -46.3665
5.000000, 71.063, -48.8918
5.080000, 71.212, -52.0708
5.150000, 71.322, -54.6605
5.220000, 71.411, -57.1963
5.300000, 71.489, -60.0498
5.380000, 71.544, -62.7766
5.450000, 71.576, -65.0057
5.520000, 71.595, -67.0524
5.600000, 71.596, -69.2623
5.700000, 71.573, -71.8768
5.800000, 71.530, -74.2302
5.900000, 71.474, -76.2480
6.000000, 71.401, -77.9686
6.080000, 71.334, -79.1757
6.150000, 71.277, -80.0872
6.220000, 71.225, -80.8661
6.300000, 71.171, -81.5644
6.400000, 71.109, -82.1766
6.500000, 71.063, -82.5793
6.600000, 71.045, -82.8152
6.700000, 71.058, -82.8750
6.800000, 71.098, -82.7767
6.900000, 71.166, -82.6393
7.000000, 71.263, -82.5206
7.100000, 71.392, -82.4068
7.200000, 71.544, -82.3216
7.300000, 71.710, -82.3428
7.400000, 71.887, -82.4874
7.500000, 72.074, -82.7396
7.620000, 72.302, -83.1656
7.750000, 72.540, -83.7991
7.880000, 72.767, -84.6015
8.000000, 72.963, -85.4263
8.120000, 73.139, -86.3134
8.250000, 73.308, -87.3423
8.380000, 73.456, -88.3768
8.500000, 73.573, -89.3066
8.620000, 73.672, -90.2137
8.750000, 73.763, -91.1372
8.850000, 73.823, -91.7859
9.000000, 73.900, -92.6636
9.120000, 73.954, -93.2837
9.250000, 74.009, -93.8638
9.380000, 74.061, -94.3535
9.500000, 74.109, -94.7428
9.620000, 74.161, -95.0692
9.750000, 74.218, -95.3624
9.880000, 74.271, -95.6163
10.000000, 74.316, -95.8158
10.150000, 74.365, -96.0628
10.300000, 74.413, -96.2762
10.440000, 74.455, -96.4504
10.600000, 74.506, -96.6251
10.750000, 74.558, -96.7701
10.900000, 74.616, -96.9010
11.060000, 74.684, -97.0593
11.200000, 74.749, -97.2341
11.380000, 74.837, -97.4728
11.500000, 74.898, -97.6464
11.720000, 75.014, -98.0118
11.800000, 75.057, -98.1650
12.060000, 75.196, -98.7590
12.200000, 75.267, -99.1647
12.410000, 75.363, -99.8043
12.500000, 75.398, -100.0776
12.650000, 75.446, -100.5226
12.800000, 75.483, -100.9272
13.150000, 75.540, -101.6537
13.200000, 75.547, -101.7275
13.400000, 75.580, -101.9122
13.600000, 75.627, -101.9392
13.800000, 75.700, -101.8441
14.000000, 75.805, -101.7186
14.300000, 76.023, -101.7213
14.500000, 76.196, -101.9188
14.750000, 76.422, -102.4535
15.000000, 76.637, -103.3047
15.250000, 76.821, -104.4460
15.500000, 76.960, -105.6838
15.750000, 77.051, -106.8766
16.000000, 77.104, -107.8980
16.250000, 77.139, -108.7253
16.500000, 77.176, -109.3112
16.750000, 77.230, -109.7133
17.000000, 77.311, -110.0380
17.250000, 77.415, -110.4063
17.500000, 77.528, -110.8547
17.750000, 77.639, -111.3884
18.000000, 77.737, -111.9770
18.250000, 77.821, -112.5889
18.500000, 77.890, -113.1545
18.750000, 77.953, -113.6501
19.000000, 78.013, -114.0801
19.250000, 78.075, -114.4952
19.500000, 78.134, -114.8890
19.750000, 78.184, -115.2573
20.000000, 78.220, -115.5646
20.299999, 78.246, -115.7976
20.600000, 78.269, -115.7637
20.900000, 78.317, -115.4520
21.200001, 78.417, -115.0093
21.400000, 78.520, -114.7585
21.799999, 78.790, -114.6827
22.000000, 78.936, -114.9554
22.400000, 79.179, -116.1343
22.700001, 79.279, -117.3218
23.000000, 79.296, -118.4665
23.299999, 79.248, -119.3162
23.600000, 79.173, -119.6785
24.000000, 79.117, -119.4247
24.299999, 79.154, -118.9667
24.700001, 79.313, -118.5325
25.000000, 79.477, -118.6008
25.400000, 79.682, -119.2855
25.799999, 79.821, -120.3524
26.200001, 79.887, -121.4243
26.500000, 79.907, -122.0670
26.900000, 79.929, -122.6431
27.200001, 79.959, -122.9261
27.600000, 80.026, -123.2413
28.000000, 80.112, -123.6075
28.500000, 80.223, -124.2213
29.000000, 80.315, -124.9252
29.500000, 80.383, -125.6269
30.000000, 80.430, -126.2526
30.400000, 80.453, -126.6815
30.700001, 80.463, -126.9292
31.100000, 80.474, -127.1315
31.500000, 80.494, -127.1942
32.000000, 80.558, -127.1773
32.500000, 80.666, -127.3284
33.000000, 80.782, -127.8154
33.500000, 80.863, -128.5591
34.000000, 80.905, -129.3043
34.500000, 80.931, -129.9191
35.000000, 80.959, -130.4280
35.500000, 80.988, -130.8804
36.000000, 81.018, -131.2450
36.500000, 81.065, -131.5667
37.000000, 81.124, -132.0061
37.500000, 81.155, -132.6298
38.200001, 81.089, -133.2455
38.700001, 81.018, -133.0040
39.500000, 81.079, -131.9266
40.000000, 81.224, -131.7122
40.599998, 81.382, -132.2708
41.200001, 81.454, -133.2667
41.799999, 81.455, -134.2538
42.500000, 81.416, -135.1448
43.099998, 81.390, -135.5731
43.700001, 81.426, -135.7626
44.400002, 81.582, -136.1357
45.000000, 81.772, -137.0084
45.500000, 81.914, -138.2075
46.200001, 81.987, -140.2050
46.799999, 81.902, -141.4064
47.500000, 81.756, -141.2710
48.200001, 81.779, -139.9470
48.700001, 81.911, -139.1950
49.400002, 82.108, -139.0652
50.000000, 82.173, -139.4786
50.799999, 82.100, -139.6718
51.500000, 82.019, -138.9980
52.200001, 82.063, -138.2273
53.000000, 82.180, -138.5160
53.799999, 82.168, -139.4962
54.500000, 82.118, -139.8708
55.200001, 82.161, -140.0911
56.000000, 82.246, -140.8544
57.000000, 82.237, -141.6671
58.000000, 82.247, -140.7789
59.000000, 82.585, -139.5947
60.000000, 82.945, -141.2638
60.799999, 82.881, -143.4484
61.500000, 82.657, -144.4956
62.200001, 82.428, -144.8997
63.000000, 82.171, -145.0695
64.000000, 81.918, -144.7453
65.000000, 81.822, -144.8688
66.000000, 81.706, -145.4686
67.000000, 81.606, -145.6847
68.000000, 81.503, -145.5671
69.000000, 81.417, -144.3525
70.000000, 81.495, -142.6730
71.000000, 81.640, -141.6213
72.000000, 81.757, -140.9565
73.000000, 81.872, -140.4186
74.000000, 82.009, -140.2160
75.000000, 82.140, -140.4603
76.199997, 82.263, -141.0259
77.500000, 82.354, -141.6332
78.800003, 82.439, -141.9824
80.000000, 82.518, -142.4578
81.199997, 82.544, -143.0606
82.500000, 82.523, -143.6211
83.800003, 82.477, -143.9995
85.000000, 82.437, -144.1116
86.199997, 82.416, -144.0195
87.500000, 82.421, -143.6804
88.500000, 82.451, -143.3444
90.000000, 82.523, -142.9272
91.199997, 82.589, -142.7616
92.500000, 82.664, -142.7805
93.800003, 82.728, -143.0939
95.000000, 82.758, -143.5145
96.199997, 82.769, -143.9196
97.500000, 82.768, -144.4299
98.800003, 82.714, -145.0837
100.000000, 82.614, -145.3079
101.500000, 82.577, -145.0901
103.000000, 82.589, -145.5994
104.400002, 82.513, -146.0195
106.000000, 82.382, -145.7478
107.500000, 82.281, -144.5734
109.000000, 82.305, -142.9325
110.599998, 82.399, -142.1322
112.000000, 82.444, -141.3397
113.800003, 82.633, -140.4075
115.000000, 82.753, -140.5280
117.199997, 82.747, -140.4939
118.000000, 82.753, -140.1027
120.599998, 82.764, -140.5138
122.000000, 82.680, -140.5024
124.099998, 82.766, -139.9396
125.000000, 82.849, -140.0184
126.500000, 82.967, -140.3024
128.000000, 83.046, -140.4692
131.500000, 83.183, -140.5415
132.000000, 83.198, -140.5931
134.000000, 83.237, -140.7773
136.000000, 83.273, -140.6487
138.000000, 83.332, -140.5178
140.000000, 83.356, -140.4742
143.000000, 83.407, -139.9639
145.000000, 83.456, -140.1569
147.500000, 83.418, -140.7380
150.000000, 83.376, -141.0032
152.500000, 83.355, -140.9788
155.000000, 83.416, -140.3541
157.500000, 83.517, -140.2847
160.000000, 83.577, -140.4135
162.500000, 83.566, -140.3330
165.000000, 83.518, -139.6686
167.500000, 83.494, -139.4192
170.000000, 83.483, -139.6927
172.500000, 83.507, -139.7841
175.000000, 83.545, -139.5721
177.500000, 83.532, -139.4808
180.000000, 83.508, -139.6411
182.500000, 83.529, -140.0768
185.000000, 83.548, -140.4396
187.500000, 83.510, -140.6545
190.000000, 83.419, -140.8899
192.500000, 83.314, -141.0603
195.000000, 83.208, -140.9590
197.500000, 83.081, -140.6115
200.000000, 82.938, -140.1494
203.000000, 82.786, -139.4420
206.000000, 82.671, -138.5010
209.000000, 82.576, -137.4503
212.000000, 82.497, -136.2902
214.000000, 82.478, -135.4421
218.000000, 82.520, -134.0894
220.000000, 82.555, -133.5955
224.000000, 82.577, -132.6969
227.000000, 82.526, -132.1177
230.000000, 82.454, -131.5250
233.000000, 82.411, -130.8464
236.000000, 82.404, -129.9626
240.000000, 82.376, -128.8616
243.000000, 82.348, -127.7729
247.000000, 82.353, -126.5927
250.000000, 82.360, -125.9988
254.000000, 82.367, -125.2595
258.000000, 82.348, -124.4819
262.000000, 82.280, -123.5931
265.000000, 82.231, -122.8804
269.000000, 82.152, -121.9961
272.000000, 82.081, -121.0938
276.000000, 81.996, -119.7155
280.000000, 81.903, -118.2116
285.000000, 81.834, -116.5430
290.000000, 81.728, -113.7283
295.000000, 81.580, -110.0200
300.000000, 81.649, -106.1578
304.000000, 81.857, -102.7662
307.000000, 82.071, -100.2438
311.000000, 82.439, -97.3229
315.000000, 82.875, -95.4747
320.000000, 83.436, -94.4783
325.000000, 83.892, -94.1470
330.000000, 84.213, -94.3474
335.000000, 84.470, -94.6443
340.000000, 84.666, -94.9295
345.000000, 84.813, -95.1956
350.000000, 84.923, -95.2160
355.000000, 85.003, -95.1584
360.000000, 85.059, -95.0167
365.000000, 85.102, -94.6805
370.000000, 85.137, -94.2191
375.000000, 85.175, -93.6392
382.000000, 85.219, -92.7118
387.000000, 85.255, -91.8893
395.000000, 85.355, -90.4890
400.000000, 85.417, -89.6545
406.000000, 85.469, -88.6925
412.000000, 85.518, -87.6299
418.000000, 85.584, -86.4817
425.000000, 85.668, -85.1987
431.000000, 85.742, -84.0128
437.000000, 85.821, -82.7887
444.000000, 85.919, -81.3706
450.000000, 86.015, -80.1956
455.000000, 86.102, -79.1904
462.000000, 86.229, -77.7557
468.000000, 86.343, -76.5310
475.000000, 86.479, -75.1370
482.000000, 86.623, -73.7467
487.000000, 86.730, -72.7692
494.000000, 86.884, -71.4357
500.000000, 87.026, -70.3351
508.000000, 87.230, -68.9075
515.000000, 87.409, -67.7291
522.000000, 87.574, -66.5867
530.000000, 87.764, -65.3175
538.000000, 87.961, -64.0378
545.000000, 88.141, -62.8530
552.000000, 88.328, -61.7474
560.000000, 88.541, -60.6440
570.000000, 88.801, -59.2211
580.000000, 89.072, -57.8637
590.000000, 89.339, -56.6787
600.000000, 89.603, -55.4395
608.000000, 89.820, -54.4822
615.000000, 90.013, -53.6800
622.000000, 90.209, -52.9157
630.000000, 90.430, -52.1327
640.000000, 90.701, -51.2921
650.000000, 90.961, -50.5641
660.000000, 91.213, -49.7893
670.000000, 91.473, -49.1444
680.000000, 91.719, -48.6059
690.000000, 91.947, -48.0723
700.000000, 92.165, -47.4836
710.000000, 92.393, -46.8514
720.000000, 92.629, -46.3074
730.000000, 92.858, -45.9351
740.000000, 93.077, -45.5926
750.000000, 93.290, -45.2023
762.000000, 93.537, -44.8540
775.000000, 93.793, -44.5390
788.000000, 94.039, -44.3146
800.000000, 94.248, -44.1877
812.000000, 94.441, -44.0355
825.000000, 94.640, -43.8223
838.000000, 94.834, -43.6997
850.000000, 94.995, -43.6141
862.000000, 95.146, -43.5426
875.000000, 95.290, -43.4783
885.000000, 95.396, -43.3497
900.000000, 95.557, -43.1855
912.000000, 95.669, -43.1147
925.000000, 95.778, -43.0631
938.000000, 95.868, -42.9561
950.000000, 95.947, -42.6926
962.000000, 96.032, -42.4462
975.000000, 96.115, -42.2227
988.000000, 96.187, -41.9775
1000.000000, 96.242, -41.7589
1015.000000, 96.295, -41.2661
1030.000000, 96.382, -40.7078
1044.000000, 96.478, -40.3610
1060.000000, 96.555, -40.1384
1075.000000, 96.592, -39.8231
1090.000000, 96.625, -39.3365
1106.000000, 96.695, -38.6633
1120.000000, 96.771, -38.2262
1138.000000, 96.849, -37.8141
1150.000000, 96.881, -37.5987
1172.000000, 96.876, -37.1171
1180.000000, 96.853, -36.8233
1206.000000, 96.775, -34.7938
1220.000000, 96.830, -33.1266
1241.000000, 97.078, -31.1991
1250.000000, 97.199, -30.7663
1265.000000, 97.375, -30.3987
1280.000000, 97.507, -30.2612
1315.000000, 97.648, -29.8857
1320.000000, 97.661, -29.7919
1340.000000, 97.695, -29.4243
1360.000000, 97.686, -28.9676
1380.000000, 97.653, -28.4277
1400.000000, 97.613, -27.7299
1430.000000, 97.598, -26.2516
1450.000000, 97.630, -25.4246
1475.000000, 97.670, -24.8146
1500.000000, 97.628, -24.6200
1525.000000, 97.460, -24.3246
1550.000000, 97.250, -23.3781
1575.000000, 97.027, -22.7592
1600.000000, 96.600, -22.1405
1625.000000, 95.980, -19.7711
1650.000000, 95.350, -14.9025
1675.000000, 94.999, -6.6262
1700.000000, 95.469, 3.1094
1725.000000, 96.593, 8.0812
1750.000000, 97.535, 7.4016
1775.000000, 97.945, 4.4540
1800.000000, 97.873, 1.8472
1825.000000, 97.519, 1.1097
1850.000000, 97.141, 2.2605
1875.000000, 96.850, 4.3082
1900.000000, 96.628, 6.7762
1925.000000, 96.462, 9.4336
1950.000000, 96.330, 12.2262
1975.000000, 96.238, 15.1216
2000.000000, 96.183, 17.9729
2030.000000, 96.133, 21.3035
2060.000000, 96.097, 24.7035
2090.000000, 96.092, 28.1887
2120.000000, 96.122, 31.4805
2140.000000, 96.132, 33.4880
2180.000000, 96.106, 37.8309
2200.000000, 96.099, 40.2874
2240.000000, 96.207, 45.6032
2270.000000, 96.413, 48.9744
2300.000000, 96.589, 51.3878
2330.000000, 96.665, 53.7268
2360.000000, 96.725, 56.2435
2400.000000, 96.752, 59.4255
2430.000000, 96.727, 62.0674
2470.000000, 96.720, 66.0032
2500.000000, 96.710, 68.7980
2540.000000, 96.639, 73.1376
2580.000000, 96.698, 78.3237
2620.000000, 96.875, 82.5933
2650.000000, 96.950, 85.2569
2690.000000, 96.932, 89.1757
2720.000000, 96.918, 92.9500
2760.000000, 97.054, 98.4344
2800.000000, 97.282, 103.2115
2850.000000, 97.559, 108.9087
2900.000000, 97.888, 114.5808
2950.000000, 98.276, 120.1221
3000.000000, 98.786, 125.3212
3040.000000, 99.233, 128.4872
3070.000000, 99.520, 130.4014
3110.000000, 99.840, 132.8790
3150.000000, 100.149, 135.3764
3200.000000, 100.511, 137.9124
3250.000000, 100.746, 140.1725
3300.000000, 100.900, 142.8663
3350.000000, 101.069, 146.0707
3400.000000, 101.296, 149.2396
3450.000000, 101.564, 152.2352
3500.000000, 101.899, 154.5440
3550.000000, 102.113, 155.6555
3600.000000, 102.119, 156.9991
3650.000000, 102.093, 158.8826
3700.000000, 102.003, 160.4283
3750.000000, 101.705, 162.5872
3820.000000, 101.311, 168.7380
3870.000000, 101.277, 173.7298
3950.000000, 101.458, -179.3804
4000.000000, 101.609, -176.0323
4060.000000, 101.691, -172.6468
4120.000000, 101.725, -169.1509
4180.000000, 101.734, -166.2053
4250.000000, 101.538, -163.1583
4310.000000, 101.206, -159.7791
4370.000000, 100.799, -155.5218
4440.000000, 100.305, -149.1834
4500.000000, 99.965, -142.7694
4550.000000, 99.762, -137.1652
4620.000000, 99.518, -129.1529
4680.000000, 99.345, -121.5047
4750.000000, 99.327, -111.4876
4820.000000, 99.621, -101.2718
4870.000000, 100.001, -94.5316
4940.000000, 100.711, -86.1626
5000.000000, 101.439, -80.3782
5080.000000, 102.427, -75.1348
5150.000000, 103.115, -72.6072
5220.000000, 103.526, -70.8990
5300.000000, 103.711, -68.5585
5380.000000, 103.781, -64.9830
5450.000000, 103.892, -61.1993
5520.000000, 104.079, -57.4248
5600.000000, 104.344, -53.5487
5700.000000, 104.689, -49.5847
5800.000000, 105.007, -46.8173
5900.000000, 105.229, -45.6146
6000.000000, 105.172, -46.3613
6080.000000, 104.727, -47.6175
6150.000000, 103.995, -47.9672
6220.000000, 103.018, -46.7447
6300.000000, 101.767, -42.7907
6400.000000, 100.307, -34.4732
6500.000000, 99.186, -24.1515
6600.000000, 98.338, -13.6424
6700.000000, 97.580, -3.0820
6800.000000, 96.887, 8.1693
6900.000000, 96.338, 20.1109
7000.000000, 95.943, 32.4657
7100.000000, 95.713, 45.2864
7200.000000, 95.689, 58.1117
7300.000000, 95.838, 70.4342
7400.000000, 96.102, 82.0938
7500.000000, 96.455, 93.1413
7620.000000, 96.987, 105.5553
7750.000000, 97.675, 118.1321
7880.000000, 98.428, 129.8873
8000.000000, 99.268, 139.6115
8120.000000, 100.262, 147.3151
8250.000000, 101.362, 152.3663
8380.000000, 102.221, 153.7453
8500.000000, 102.524, 152.5816
8620.000000, 102.223, 151.0119
8750.000000, 101.325, 150.8370
8850.000000, 100.428, 152.5108
9000.000000, 99.076, 157.1071
9120.000000, 98.042, 161.2771
9250.000000, 96.858, 165.5260
9380.000000, 95.441, 169.8788
9500.000000, 93.890, 175.2383
9620.000000, 92.298, -177.4609
9750.000000, 90.792, -168.5801
9880.000000, 89.584, -161.0914
10000.000000, 88.549, -156.7904
10150.000000, 87.041, -155.3899
10300.000000, 85.161, -158.1226
10440.000000, 83.344, -164.8624
10600.000000, 82.213, -177.8491
10750.000000, 83.002, 169.0779
10900.000000, 85.031, 159.8861
11060.000000, 87.445, 154.0410
11200.000000, 89.290, 150.3561
11380.000000, 90.969, 145.8591
11500.000000, 91.548, 143.1229
11720.000000, 91.456, 140.4114
11800.000000, 91.089, 140.7257
12060.000000, 88.919, 148.9408
12200.000000, 87.338, 160.3170
12410.000000, 85.953, -166.1631
12500.000000, 86.637, -148.9493
12650.000000, 88.944, -130.1864
12800.000000, 91.015, -124.7601
13150.000000, 91.672, -127.2987
13200.000000, 91.377, -127.0233
13400.000000, 89.764, -121.9840
13600.000000, 88.137, -111.4827
13800.000000, 87.003, -99.4746
14000.000000, 86.300, -89.6115
14300.000000, 85.438, -83.0588
14500.000000, 84.764, -85.6912
14750.000000, 83.760, -98.6808
15000.000000, 82.795, -119.1802
15250.000000, 82.555, -136.3450
15500.000000, 82.853, -144.9526
15750.000000, 82.704, -144.4886
16000.000000, 82.199, -135.0935
16250.000000, 81.717, -117.6004
16500.000000, 81.947, -93.9200
16750.000000, 83.160, -71.1270
17000.000000, 84.427, -54.3904
17250.000000, 85.168, -41.1063
17500.000000, 85.317, -30.0154
17750.000000, 84.384, -19.7637
18000.000000, 82.032, -2.9413
18250.000000, 79.320, 32.3551
18500.000000, 79.009, 81.4354
18750.000000, 80.871, 119.0522
19000.000000, 83.042, 146.6970
19250.000000, 85.145, 169.2312
19500.000000, 87.075, -173.0316
19750.000000, 88.480, -160.2131
20000.000000, 88.976, -150.3911
20300.000000, 88.453, -138.4471
20600.000000, 87.183, -124.2624
20900.000000, 85.415, -107.9108
21200.000000, 83.219, -90.1159
21400.000000, 81.468, -77.7580
21800.000000, 76.875, -51.3575
22000.000000, 73.756, -36.1674
22400.000000, 65.332, -1.2689
22700.000000, 57.387, 27.0059
23000.000000, 48.801, 51.5369
23300.000000, 41.795, 102.7086
23600.000000, 39.322, 124.0466
24000.000000, 38.983, -52.3185
