* Measurement data measured by REW V5.31
* Source: Headset (DS by VECLAN.COM), MICROPHONE (Master Volume), L, volume: 0.720. Timing signal peak level -27.3 dBFS, measurement signal peak level -9.7 dBFS
* Format: 4M Log Swept Sine, 1 sweep at -12.0 dBFS using an acoustic timing reference
* Dated: Apr 20, 2024 10:55:05 PM
* REW Settings:
*  C-weighting compensation: Off
*  Target level: 75.0 dB
* Note: ; Delay -0.0656 ms (-22 mm, -0.89 in) using estimated IR delay relative to Acoustic reference played from HEADPHONE R with no timing offset
* Measurement: Nokia Earbuds R4
* Smoothing: 1/24 octave
* Frequency Step: 1/48 octave
* Start Frequency: 1.000 Hz
*
* Freq(Hz), SPL(dB), Phase(degrees)
1.000000, 72.732, 70.6529
1.015000, 72.789, 71.7099
1.030000, 72.846, 72.7446
1.044000, 72.900, 73.6888
1.060000, 72.961, 74.7409
1.075000, 73.019, 75.6997
1.090000, 73.076, 76.6313
1.106000, 73.139, 77.5984
1.120000, 73.198, 78.4292
1.138000, 73.282, 79.4814
1.150000, 73.341, 80.1731
1.172000, 73.457, 81.4133
1.180000, 73.501, 81.8506
1.206000, 73.649, 83.2452
1.220000, 73.731, 83.9785
1.241000, 73.854, 85.0547
1.250000, 73.907, 85.5070
1.265000, 73.994, 86.2488
1.280000, 74.080, 86.9753
1.315000, 74.269, 88.6100
1.320000, 74.294, 88.8366
1.340000, 74.391, 89.7250
1.360000, 74.477, 90.5862
1.380000, 74.552, 91.3807
1.400000, 74.613, 92.1318
1.430000, 74.676, 93.2040
1.450000, 74.696, 93.8823
1.475000, 74.694, 94.6916
1.500000, 74.662, 95.4653
1.525000, 74.604, 96.2073
1.550000, 74.523, 96.9182
1.575000, 74.422, 97.5768
1.600000, 74.304, 98.1662
1.625000, 74.172, 98.7256
1.650000, 74.029, 99.2552
1.675000, 73.878, 99.7552
1.700000, 73.723, 100.2256
1.725000, 73.566, 100.6664
1.750000, 73.411, 101.0775
1.775000, 73.261, 101.4417
1.800000, 73.118, 101.7424
1.825000, 72.986, 102.0121
1.850000, 72.862, 102.2466
1.875000, 72.741, 102.4434
1.900000, 72.622, 102.6042
1.925000, 72.503, 102.7318
1.950000, 72.385, 102.8298
1.975000, 72.266, 102.8841
2.000000, 72.146, 102.8812
2.030000, 72.001, 102.8501
2.060000, 71.854, 102.7904
2.090000, 71.704, 102.7051
2.120000, 71.551, 102.5969
2.140000, 71.446, 102.5130
2.180000, 71.230, 102.2966
2.200000, 71.119, 102.1512
2.240000, 70.892, 101.7999
2.270000, 70.719, 101.4733
2.300000, 70.542, 101.0958
2.330000, 70.363, 100.6726
2.360000, 70.181, 100.2084
2.400000, 69.931, 99.4868
2.430000, 69.740, 98.9039
2.470000, 69.478, 98.0884
2.500000, 69.276, 97.4528
2.540000, 68.998, 96.5776
2.580000, 68.711, 95.6357
2.620000, 68.414, 94.5567
2.650000, 68.184, 93.6681
2.690000, 67.870, 92.3788
2.720000, 67.629, 91.3378
2.760000, 67.302, 89.8597
2.800000, 66.970, 88.2456
2.850000, 66.549, 86.1018
2.900000, 66.123, 83.8390
2.950000, 65.689, 81.4311
3.000000, 65.231, 78.7337
3.040000, 64.848, 76.3361
3.070000, 64.556, 74.4026
3.110000, 64.168, 71.6481
3.150000, 63.787, 68.7006
3.200000, 63.336, 64.7367
3.250000, 62.925, 60.5170
3.300000, 62.566, 56.0745
3.350000, 62.248, 51.3372
3.400000, 61.959, 46.2087
3.450000, 61.702, 40.7545
3.500000, 61.483, 35.0895
3.550000, 61.310, 29.3447
3.600000, 61.191, 23.6334
3.650000, 61.135, 18.0852
3.700000, 61.152, 12.7362
3.750000, 61.244, 7.5629
3.820000, 61.475, 0.6662
3.870000, 61.689, -3.9084
3.950000, 62.066, -10.4875
4.000000, 62.298, -14.1381
4.060000, 62.566, -18.0948
4.120000, 62.844, -21.6917
4.180000, 63.135, -24.9863
4.250000, 63.480, -28.4821
4.310000, 63.765, -31.1555
4.370000, 64.030, -33.5493
4.440000, 64.309, -36.0745
4.500000, 64.529, -38.0518
4.550000, 64.701, -39.5867
4.620000, 64.925, -41.5998
4.680000, 65.103, -43.1842
4.750000, 65.293, -44.8696
4.820000, 65.464, -46.4347
4.870000, 65.575, -47.4922
4.940000, 65.713, -48.8930
5.000000, 65.818, -50.0392
5.080000, 65.939, -51.4866
5.150000, 66.028, -52.6782
5.220000, 66.101, -53.8479
5.300000, 66.164, -55.1515
5.380000, 66.205, -56.4100
5.450000, 66.222, -57.4900
5.520000, 66.222, -58.5424
5.600000, 66.202, -59.7567
5.700000, 66.145, -61.2916
5.800000, 66.047, -62.7900
5.900000, 65.904, -64.2596
6.000000, 65.719, -65.7609
6.080000, 65.537, -66.9811
6.150000, 65.350, -68.0085
6.220000, 65.135, -68.9948
6.300000, 64.855, -70.0827
6.400000, 64.456, -71.4302
6.500000, 63.992, -72.6961
6.600000, 63.451, -73.7498
6.700000, 62.833, -74.5853
6.800000, 62.139, -75.1879
6.900000, 61.357, -75.4310
7.000000, 60.466, -75.1043
7.100000, 59.450, -74.0374
7.200000, 58.361, -72.0272
7.300000, 57.275, -68.7855
7.400000, 56.197, -63.8254
7.500000, 55.125, -56.6505
7.620000, 54.094, -45.2177
7.750000, 53.726, -31.0838
7.880000, 54.164, -17.8719
8.000000, 54.890, -8.5687
8.120000, 55.665, -2.3989
8.250000, 56.553, 1.5529
8.380000, 57.369, 3.6460
8.500000, 57.942, 4.4481
8.620000, 58.360, 4.4352
8.750000, 58.672, 3.9462
8.850000, 58.820, 3.4039
9.000000, 58.900, 2.3322
9.120000, 58.863, 1.4475
9.250000, 58.740, 0.6298
9.380000, 58.536, -0.0619
9.500000, 58.305, -0.5293
9.620000, 58.046, -0.7457
9.750000, 57.741, -0.7348
9.880000, 57.437, -0.5649
10.000000, 57.170, -0.2819
10.150000, 56.860, 0.0984
10.300000, 56.591, 0.2599
10.440000, 56.382, 0.0992
10.600000, 56.168, -0.6001
10.750000, 55.972, -1.9244
10.900000, 55.763, -3.8572
11.060000, 55.488, -6.5568
11.200000, 55.193, -9.4766
11.380000, 54.715, -13.6284
11.500000, 54.324, -16.5804
11.720000, 53.459, -22.0280
11.800000, 53.095, -23.8658
12.060000, 51.766, -28.9431
12.200000, 50.993, -30.6364
12.410000, 49.876, -31.2802
12.500000, 49.478, -30.8100
12.650000, 48.968, -29.0352
12.800000, 48.711, -26.6733
13.150000, 49.162, -22.7790
13.200000, 49.289, -22.6933
13.400000, 49.824, -23.6015
13.600000, 50.234, -25.9236
13.800000, 50.380, -29.0236
14.000000, 50.189, -31.7061
14.300000, 49.277, -32.5958
14.500000, 48.424, -28.4487
14.750000, 48.028, -16.2135
15.000000, 49.063, -1.6838
15.250000, 51.172, 5.7606
15.500000, 53.248, 5.7501
15.750000, 54.783, 1.4412
16.000000, 55.688, -4.9355
16.250000, 55.963, -11.6976
16.500000, 55.599, -17.4760
16.750000, 54.617, -20.2251
17.000000, 53.267, -16.7404
17.250000, 52.521, -4.2961
17.500000, 53.496, 11.2389
17.750000, 55.577, 18.9321
18.000000, 57.702, 18.4706
18.250000, 59.300, 13.2839
18.500000, 60.340, 5.8357
18.750000, 60.856, -2.4781
19.000000, 60.887, -10.7929
19.250000, 60.455, -18.2177
19.500000, 59.593, -23.8150
19.750000, 58.394, -26.3349
20.000000, 57.111, -24.4116
20.299999, 56.174, -16.3148
20.600000, 56.371, -7.1264
20.900000, 57.215, -2.5374
21.200001, 57.899, -2.2821
21.400000, 58.109, -3.1061
21.799999, 58.013, -3.9067
22.000000, 57.871, -2.9834
22.400000, 57.927, 1.0727
22.700001, 58.423, 3.4659
23.000000, 59.052, 3.3173
23.299999, 59.482, 0.7197
23.600000, 59.514, -3.0708
24.000000, 58.873, -7.1625
24.299999, 58.053, -7.4055
24.700001, 57.225, -2.5201
25.000000, 57.308, 2.5172
25.400000, 58.140, 5.0354
25.799999, 58.898, 1.8522
26.200001, 59.113, -3.9582
26.500000, 58.954, -8.1367
26.900000, 58.588, -11.9875
27.200001, 58.424, -13.5812
27.600000, 58.487, -15.0989
28.000000, 58.709, -16.5733
28.500000, 59.077, -16.6875
29.000000, 60.169, -14.1003
29.500000, 62.253, -14.8554
30.000000, 64.252, -22.9383
30.400000, 65.167, -33.0062
30.700001, 65.309, -41.2126
31.100000, 64.687, -51.0395
31.500000, 63.118, -56.1714
32.000000, 60.776, -45.8413
32.500000, 61.223, -22.1431
33.000000, 63.354, -16.5824
33.500000, 64.308, -21.8041
34.000000, 63.847, -26.5393
34.500000, 62.676, -23.8984
35.000000, 62.241, -13.7313
35.500000, 62.928, -6.2846
36.000000, 63.603, -5.3379
36.500000, 63.761, -6.7884
37.000000, 63.662, -7.8600
37.500000, 63.636, -8.9875
38.200001, 63.586, -12.6477
38.700001, 63.358, -15.2670
39.500000, 63.467, -16.4271
40.000000, 64.179, -18.1707
40.599998, 64.984, -23.5115
41.200001, 65.139, -28.6112
41.799999, 64.952, -28.0408
42.500000, 65.662, -20.7383
43.099998, 66.967, -17.6374
43.700001, 67.849, -18.8764
44.400002, 67.939, -19.4810
45.000000, 67.805, -14.9633
45.500000, 68.140, -9.2264
46.200001, 69.102, -5.7661
46.799999, 69.543, -7.8885
47.500000, 69.206, -11.5189
48.200001, 68.385, -12.7905
48.700001, 67.845, -12.6006
49.400002, 67.274, -12.5377
50.000000, 66.951, -13.2121
50.799999, 66.719, -15.1861
51.500000, 66.565, -15.2626
52.200001, 67.074, -11.5982
53.000000, 68.504, -10.6780
53.799999, 69.239, -13.2891
54.500000, 69.437, -12.0741
55.200001, 69.802, -9.8846
56.000000, 69.719, -4.3889
57.000000, 71.555, 24.1443
58.000000, 74.842, 23.0379
59.000000, 75.229, 7.4555
60.000000, 74.069, -1.9506
60.799999, 73.197, -6.9102
61.500000, 72.291, -10.4714
62.200001, 71.489, -11.5559
63.000000, 71.210, -12.0116
64.000000, 71.196, -14.2984
65.000000, 71.279, -13.4096
66.000000, 72.065, -9.3284
67.000000, 73.293, -7.9899
68.000000, 74.123, -10.0940
69.000000, 74.364, -12.2985
70.000000, 74.216, -13.5078
71.000000, 73.657, -13.0139
72.000000, 73.099, -7.0021
73.000000, 73.644, 0.4831
74.000000, 74.765, 0.0378
75.000000, 75.414, -6.0013
76.199997, 75.484, -12.8895
77.500000, 75.485, -16.7977
78.800003, 75.422, -18.1382
80.000000, 75.530, -15.4074
81.199997, 76.092, -13.3022
82.500000, 76.492, -14.9023
83.800003, 76.522, -16.3034
85.000000, 76.684, -16.7149
86.199997, 77.154, -16.6170
87.500000, 78.001, -16.6643
88.500000, 78.827, -17.4795
90.000000, 79.291, -22.3504
91.199997, 78.785, -20.6879
92.500000, 78.707, -15.5131
93.800003, 78.813, -12.3334
95.000000, 79.059, -11.0818
96.199997, 79.246, -11.7314
97.500000, 79.413, -12.6885
98.800003, 79.648, -13.3844
100.000000, 79.902, -14.1092
101.500000, 80.088, -14.7442
103.000000, 80.318, -13.6580
104.400002, 80.703, -13.4455
106.000000, 81.023, -13.7516
107.500000, 81.344, -13.1693
109.000000, 81.697, -12.9993
110.599998, 81.967, -13.3677
112.000000, 82.166, -13.9070
113.800003, 82.471, -14.7662
115.000000, 82.771, -14.7507
117.199997, 83.678, -13.7524
118.000000, 84.071, -13.5019
120.599998, 84.767, -16.8140
122.000000, 84.516, -17.2826
124.099998, 84.437, -15.8843
125.000000, 84.549, -15.7877
126.500000, 84.797, -15.9839
128.000000, 85.095, -15.9407
131.500000, 85.766, -15.6844
132.000000, 85.849, -15.7149
134.000000, 86.211, -16.0240
136.000000, 86.656, -16.6321
138.000000, 87.030, -17.4540
140.000000, 87.292, -17.1802
143.000000, 87.779, -17.1172
145.000000, 88.122, -17.7656
147.500000, 88.607, -18.3117
150.000000, 89.069, -18.8807
152.500000, 89.502, -19.3193
155.000000, 89.946, -19.7013
157.500000, 90.337, -20.1411
160.000000, 90.602, -21.1699
162.500000, 90.906, -21.8366
165.000000, 91.460, -22.6839
167.500000, 92.022, -23.2694
170.000000, 92.507, -23.6476
172.500000, 92.919, -24.6779
175.000000, 93.315, -25.9588
177.500000, 93.749, -27.3465
180.000000, 94.180, -28.6920
182.500000, 94.639, -29.9103
185.000000, 95.097, -31.0261
187.500000, 95.518, -32.0512
190.000000, 95.911, -33.3817
192.500000, 96.290, -35.1840
195.000000, 96.668, -36.8881
197.500000, 97.083, -38.4729
200.000000, 97.489, -40.5057
203.000000, 97.932, -43.1516
206.000000, 98.377, -45.7945
209.000000, 98.793, -48.6759
212.000000, 99.166, -51.6713
214.000000, 99.399, -53.6628
218.000000, 99.843, -57.7657
220.000000, 100.050, -59.8727
224.000000, 100.426, -64.0076
227.000000, 100.687, -67.1655
230.000000, 100.923, -70.5034
233.000000, 101.115, -73.9454
236.000000, 101.270, -77.4238
240.000000, 101.449, -82.0217
243.000000, 101.561, -85.1877
247.000000, 101.682, -89.3313
250.000000, 101.751, -92.4890
254.000000, 101.816, -96.7024
258.000000, 101.844, -101.0680
262.000000, 101.826, -105.3655
265.000000, 101.778, -108.4482
269.000000, 101.677, -112.3919
272.000000, 101.581, -115.2361
276.000000, 101.426, -118.8485
280.000000, 101.245, -122.2254
285.000000, 100.976, -125.9891
290.000000, 100.681, -129.3157
295.000000, 100.397, -132.1425
300.000000, 100.108, -134.6216
304.000000, 99.875, -136.3893
307.000000, 99.696, -137.5588
311.000000, 99.466, -139.0047
315.000000, 99.253, -140.2917
320.000000, 98.997, -141.6550
325.000000, 98.749, -142.8624
330.000000, 98.525, -143.9237
335.000000, 98.313, -144.8492
340.000000, 98.111, -145.6477
345.000000, 97.915, -146.3695
350.000000, 97.731, -146.9980
355.000000, 97.561, -147.5135
360.000000, 97.403, -148.0025
365.000000, 97.261, -148.3500
370.000000, 97.117, -148.6723
375.000000, 96.975, -148.9922
382.000000, 96.793, -149.3361
387.000000, 96.677, -149.5195
395.000000, 96.506, -149.7470
400.000000, 96.406, -149.7986
406.000000, 96.297, -149.8686
412.000000, 96.195, -150.2335
418.000000, 96.093, -150.4982
425.000000, 95.981, -150.5837
431.000000, 95.900, -150.7521
437.000000, 95.831, -150.8433
444.000000, 95.772, -151.0450
450.000000, 95.691, -151.4478
455.000000, 95.582, -152.0163
462.000000, 95.367, -152.5434
468.000000, 95.191, -152.2289
475.000000, 95.065, -151.5886
482.000000, 94.986, -150.9388
487.000000, 94.933, -150.5921
494.000000, 94.860, -150.1874
500.000000, 94.818, -149.8731
508.000000, 94.767, -149.6425
515.000000, 94.712, -149.4249
522.000000, 94.648, -149.0096
530.000000, 94.583, -148.4933
538.000000, 94.538, -148.1176
545.000000, 94.506, -147.9323
552.000000, 94.460, -147.5770
560.000000, 94.412, -147.0280
570.000000, 94.360, -146.3247
580.000000, 94.338, -145.7770
590.000000, 94.328, -145.1176
600.000000, 94.336, -144.4375
608.000000, 94.351, -143.9698
615.000000, 94.370, -143.5956
622.000000, 94.389, -143.2555
630.000000, 94.411, -142.9478
640.000000, 94.431, -142.5481
650.000000, 94.458, -142.2173
660.000000, 94.491, -142.0269
670.000000, 94.507, -141.7779
680.000000, 94.505, -141.4450
690.000000, 94.506, -140.9296
700.000000, 94.517, -140.7335
710.000000, 94.531, -140.7442
720.000000, 94.526, -140.3962
730.000000, 94.514, -140.1108
740.000000, 94.523, -139.8946
750.000000, 94.536, -139.6068
762.000000, 94.521, -139.2327
775.000000, 94.503, -138.7537
788.000000, 94.495, -138.2870
800.000000, 94.484, -137.8381
812.000000, 94.477, -137.4071
825.000000, 94.494, -136.9007
838.000000, 94.514, -136.4168
850.000000, 94.527, -135.8863
862.000000, 94.536, -135.4102
875.000000, 94.543, -134.9220
885.000000, 94.549, -134.5881
900.000000, 94.562, -134.0940
912.000000, 94.570, -133.6636
925.000000, 94.568, -133.1236
938.000000, 94.577, -132.5794
950.000000, 94.585, -132.0152
962.000000, 94.578, -131.5545
975.000000, 94.571, -131.0141
988.000000, 94.574, -130.4805
1000.000000, 94.581, -130.0316
1015.000000, 94.588, -129.3764
1030.000000, 94.586, -128.6575
1044.000000, 94.584, -128.0422
1060.000000, 94.604, -127.1788
1075.000000, 94.626, -126.4041
1090.000000, 94.644, -125.7366
1106.000000, 94.672, -124.9937
1120.000000, 94.702, -124.2851
1138.000000, 94.739, -123.3794
1150.000000, 94.761, -122.7700
1172.000000, 94.822, -121.5620
1180.000000, 94.852, -121.1155
1206.000000, 94.938, -119.6960
1220.000000, 94.983, -118.9527
1241.000000, 95.072, -117.8223
1250.000000, 95.112, -117.3010
1265.000000, 95.179, -116.4244
1280.000000, 95.246, -115.5642
1315.000000, 95.420, -113.7503
1320.000000, 95.447, -113.5026
1340.000000, 95.550, -112.4977
1360.000000, 95.621, -111.3879
1380.000000, 95.708, -110.3112
1400.000000, 95.812, -109.2754
1430.000000, 95.934, -107.6803
1450.000000, 96.018, -106.6685
1475.000000, 96.133, -105.2659
1500.000000, 96.251, -103.6966
1525.000000, 96.401, -102.1590
1550.000000, 96.549, -100.8044
1575.000000, 96.700, -99.4386
1600.000000, 96.842, -98.1276
1625.000000, 96.970, -96.6671
1650.000000, 97.087, -95.3750
1675.000000, 97.185, -94.0389
1700.000000, 97.288, -92.3165
1725.000000, 97.408, -90.3885
1750.000000, 97.549, -88.3773
1775.000000, 97.699, -86.2779
1800.000000, 97.867, -83.9956
1825.000000, 98.044, -81.6713
1850.000000, 98.232, -79.1231
1875.000000, 98.425, -76.2251
1900.000000, 98.691, -72.8308
1925.000000, 99.079, -69.4150
1950.000000, 99.518, -66.1512
1975.000000, 100.022, -62.5695
2000.000000, 100.696, -58.8223
2030.000000, 101.705, -55.2456
2060.000000, 102.746, -53.0993
2090.000000, 103.803, -51.4123
2120.000000, 104.967, -50.3977
2140.000000, 105.776, -50.4939
2180.000000, 107.334, -51.9201
2200.000000, 108.125, -52.9659
2240.000000, 109.757, -56.5773
2270.000000, 110.921, -60.8474
2300.000000, 112.001, -66.1348
2330.000000, 113.008, -72.4954
2360.000000, 113.861, -80.1511
2400.000000, 114.631, -91.6818
2430.000000, 114.914, -100.6971
2470.000000, 114.906, -112.4093
2500.000000, 114.639, -120.4398
2540.000000, 114.040, -129.5610
2580.000000, 113.288, -136.7462
2620.000000, 112.492, -142.2425
2650.000000, 111.896, -145.4890
2690.000000, 111.123, -148.7872
2720.000000, 110.573, -150.6510
2760.000000, 109.883, -152.5224
2800.000000, 109.237, -153.7846
2850.000000, 108.505, -154.6380
2900.000000, 107.859, -154.9263
2950.000000, 107.279, -154.7050
3000.000000, 106.798, -154.0806
3040.000000, 106.495, -153.5643
3070.000000, 106.293, -153.3262
3110.000000, 106.019, -153.0843
3150.000000, 105.740, -152.6640
3200.000000, 105.425, -151.9716
3250.000000, 105.137, -151.1971
3300.000000, 104.888, -150.2322
3350.000000, 104.673, -149.2325
3400.000000, 104.498, -148.1245
3450.000000, 104.373, -147.1059
3500.000000, 104.274, -146.1626
3550.000000, 104.200, -145.2371
3600.000000, 104.140, -144.3760
3650.000000, 104.114, -143.4861
3700.000000, 104.113, -142.7127
3750.000000, 104.138, -141.9709
3820.000000, 104.221, -141.2218
3870.000000, 104.314, -140.8682
3950.000000, 104.500, -140.9050
4000.000000, 104.625, -141.2604
4060.000000, 104.772, -142.0471
4120.000000, 104.917, -143.0757
4180.000000, 105.100, -144.4022
4250.000000, 105.355, -147.0365
4310.000000, 105.508, -150.3820
4370.000000, 105.545, -154.4277
4440.000000, 105.458, -159.8310
4500.000000, 105.230, -165.2439
4550.000000, 104.886, -170.1721
4620.000000, 104.087, -177.0444
4680.000000, 103.147, 177.7985
4750.000000, 101.821, 172.8403
4820.000000, 100.243, 169.2347
4870.000000, 98.972, 167.8132
4940.000000, 97.031, 167.9167
5000.000000, 95.262, 170.1615
5080.000000, 92.811, 177.2002
5150.000000, 90.744, -171.1353
5220.000000, 89.274, -152.7295
5300.000000, 89.199, -128.3736
5380.000000, 90.599, -110.7388
5450.000000, 92.186, -102.4758
5520.000000, 93.692, -99.0170
5600.000000, 95.124, -99.0349
5700.000000, 96.348, -102.6461
5800.000000, 96.934, -107.9738
5900.000000, 96.989, -113.1558
6000.000000, 96.649, -117.3091
6080.000000, 96.183, -119.3190
6150.000000, 95.742, -120.2032
6220.000000, 95.275, -120.6246
6300.000000, 94.699, -120.2972
6400.000000, 94.026, -118.7181
6500.000000, 93.429, -116.7405
6600.000000, 92.821, -114.2464
6700.000000, 92.277, -111.0165
6800.000000, 91.826, -107.6219
6900.000000, 91.430, -104.0226
7000.000000, 91.126, -100.0907
7100.000000, 90.907, -96.2682
7200.000000, 90.732, -92.4777
7300.000000, 90.626, -88.6713
7400.000000, 90.567, -85.2634
7500.000000, 90.529, -82.1190
7620.000000, 90.531, -78.8621
7750.000000, 90.510, -76.0352
7880.000000, 90.369, -73.4344
8000.000000, 90.128, -71.3683
8120.000000, 89.772, -69.1618
8250.000000, 89.246, -66.3497
8380.000000, 88.629, -61.7553
8500.000000, 88.176, -55.9889
8620.000000, 87.970, -49.4315
8750.000000, 87.994, -43.4517
8850.000000, 88.040, -39.5722
9000.000000, 88.180, -34.4534
9120.000000, 88.335, -31.2639
9250.000000, 88.507, -29.2768
9380.000000, 88.488, -28.8420
9500.000000, 88.219, -29.0361
9620.000000, 87.647, -29.0048
9750.000000, 86.653, -27.3361
9880.000000, 85.395, -22.1736
10000.000000, 84.273, -12.9820
10150.000000, 83.557, 3.7801
10300.000000, 84.025, 21.3099
10440.000000, 85.276, 33.4056
10600.000000, 86.863, 40.2354
10750.000000, 87.968, 42.1824
10900.000000, 88.573, 42.9689
11060.000000, 88.861, 45.4405
11200.000000, 89.187, 49.7469
11380.000000, 89.953, 55.5527
11500.000000, 90.672, 59.0197
11720.000000, 92.427, 62.0906
11800.000000, 93.073, 61.6544
12060.000000, 94.833, 56.1166
12200.000000, 95.583, 51.2407
12410.000000, 96.398, 40.9214
12500.000000, 96.529, 35.2782
12650.000000, 96.202, 25.4697
12800.000000, 95.276, 18.3876
13150.000000, 93.914, 6.2288
13200.000000, 93.723, 3.5997
13400.000000, 92.489, -8.0250
13600.000000, 90.537, -19.1133
13800.000000, 88.153, -29.7538
14000.000000, 85.355, -42.0738
14300.000000, 79.756, -70.3280
14500.000000, 75.533, -115.8600
14750.000000, 73.665, 164.7038
15000.000000, 75.093, 145.6900
15250.000000, 76.846, 144.2070
15500.000000, 78.483, 146.7189
15750.000000, 80.350, 149.0753
16000.000000, 81.989, 146.2172
16250.000000, 82.725, 139.9369
16500.000000, 82.549, 134.0914
16750.000000, 81.634, 131.2254
17000.000000, 80.311, 133.8805
17250.000000, 79.263, 142.0652
17500.000000, 78.836, 151.5466
17750.000000, 78.649, 159.8553
18000.000000, 78.518, 169.0555
18250.000000, 78.827, 179.8597
18500.000000, 79.823, -171.1483
18750.000000, 81.184, -167.7673
19000.000000, 82.282, -171.2531
19250.000000, 82.527, -179.8093
19500.000000, 81.704, 169.9183
19750.000000, 79.943, 159.9373
20000.000000, 77.252, 150.7188
20300.000000, 72.533, 142.9369
20600.000000, 66.138, 144.4489
20900.000000, 58.869, -177.2014
21200.000000, 55.578, -86.8166
21400.000000, 55.578, -71.2983
21800.000000, 54.299, -60.0743
22000.000000, 52.431, -55.2788
22400.000000, 46.425, -46.6523
22700.000000, 42.046, -44.4266
23000.000000, 39.961, -64.5072
23300.000000, 39.383, -37.1414
23600.000000, 39.224, 5.3773
24000.000000, 39.384, 31.6814
