* Measurement data measured by REW V5.31
* Source: Headset (DS by VECLAN.COM), MICROPHONE (Master Volume), L, volume: 1.000. Timing signal peak level -21.3 dBFS, measurement signal peak level -11.7 dBFS
* Format: 4M Log Swept Sine, 1 sweep at -12.0 dBFS using an acoustic timing reference
* Dated: Apr 13, 2024 10:04:04 PM
* REW Settings:
*  C-weighting compensation: Off
*  Target level: 85.0 dB
* Note: ; Delay -0.0682 ms (-23 mm, -0.92 in) using estimated IR delay relative to Acoustic reference played from HEADPHONE R with no timing offset
* Measurement: Nokia Earbuds R3
* Smoothing: 1/24 octave
* Frequency Step: 1/48 octave
* Start Frequency: 1.000 Hz
*
* Freq(Hz), SPL(dB), Phase(degrees)
1.000000, 54.300, 26.3925
1.015000, 54.431, 26.3098
1.030000, 54.560, 26.2163
1.044000, 54.679, 26.1185
1.060000, 54.812, 25.9934
1.075000, 54.934, 25.8621
1.090000, 55.054, 25.7163
1.106000, 55.181, 25.5438
1.120000, 55.293, 25.3788
1.138000, 55.440, 25.1496
1.150000, 55.540, 24.9878
1.172000, 55.725, 24.6691
1.180000, 55.793, 24.5424
1.206000, 56.012, 24.1197
1.220000, 56.129, 23.8865
1.241000, 56.302, 23.5318
1.250000, 56.375, 23.3786
1.265000, 56.494, 23.1222
1.280000, 56.610, 22.8653
1.315000, 56.863, 22.2667
1.320000, 56.897, 22.1815
1.340000, 57.026, 21.8420
1.360000, 57.144, 21.5060
1.380000, 57.248, 21.1345
1.400000, 57.338, 20.7510
1.430000, 57.443, 20.1793
1.450000, 57.490, 19.7986
1.475000, 57.522, 19.3131
1.500000, 57.522, 18.7958
1.525000, 57.492, 18.2437
1.550000, 57.436, 17.6652
1.575000, 57.356, 17.0475
1.600000, 57.257, 16.3813
1.625000, 57.141, 15.7127
1.650000, 57.012, 15.0475
1.675000, 56.873, 14.3909
1.700000, 56.728, 13.7472
1.725000, 56.579, 13.1198
1.750000, 56.431, 12.5115
1.775000, 56.287, 11.9073
1.800000, 56.149, 11.2917
1.825000, 56.020, 10.6940
1.850000, 55.900, 10.0894
1.875000, 55.782, 9.4496
1.900000, 55.664, 8.7711
1.925000, 55.546, 8.0619
1.950000, 55.426, 7.3317
1.975000, 55.305, 6.5728
2.000000, 55.182, 5.7780
2.030000, 55.029, 4.8334
2.060000, 54.871, 3.9101
2.090000, 54.706, 3.0213
2.120000, 54.533, 2.1795
2.140000, 54.413, 1.6502
2.180000, 54.161, 0.6564
2.200000, 54.028, 0.1745
2.240000, 53.758, -0.7997
2.270000, 53.551, -1.5763
2.300000, 53.341, -2.3878
2.330000, 53.124, -3.2209
2.360000, 52.900, -4.0607
2.400000, 52.585, -5.2093
2.430000, 52.334, -6.0391
2.470000, 51.978, -7.0556
2.500000, 51.691, -7.7221
2.540000, 51.279, -8.4430
2.580000, 50.827, -8.9928
2.620000, 50.330, -9.4887
2.650000, 49.929, -9.8302
2.690000, 49.365, -10.2309
2.720000, 48.924, -10.4690
2.760000, 48.320, -10.6581
2.800000, 47.706, -10.6784
2.850000, 46.940, -10.2763
2.900000, 46.189, -9.1794
2.950000, 45.432, -7.1402
3.000000, 44.585, -3.9970
3.040000, 43.845, -0.4976
3.070000, 43.278, 2.8288
3.110000, 42.542, 8.3447
3.150000, 41.871, 15.1758
3.200000, 41.199, 25.3105
3.250000, 40.801, 36.2712
3.300000, 40.772, 46.6509
3.350000, 41.165, 55.7203
3.400000, 41.929, 63.1817
3.450000, 42.950, 68.9047
3.500000, 44.109, 73.0354
3.550000, 45.292, 75.8297
3.600000, 46.393, 77.5090
3.650000, 47.331, 78.3040
3.700000, 48.114, 78.4669
3.750000, 48.814, 78.2378
3.820000, 49.705, 77.4591
3.870000, 50.290, 76.6741
3.950000, 51.146, 75.1117
4.000000, 51.637, 73.9317
4.060000, 52.180, 72.3083
4.120000, 52.665, 70.4921
4.180000, 53.095, 68.5555
4.250000, 53.540, 66.2134
4.310000, 53.885, 64.2089
4.370000, 54.207, 62.2066
4.440000, 54.553, 59.7801
4.500000, 54.817, 57.5996
4.550000, 55.014, 55.7399
4.620000, 55.261, 53.1101
4.680000, 55.450, 50.8963
4.750000, 55.650, 48.3870
4.820000, 55.828, 45.8614
4.870000, 55.939, 44.0127
4.940000, 56.072, 41.3967
5.000000, 56.169, 39.1588
5.080000, 56.277, 36.2530
5.150000, 56.355, 33.7972
5.220000, 56.415, 31.3199
5.300000, 56.461, 28.4538
5.380000, 56.486, 25.6152
5.450000, 56.495, 23.1875
5.520000, 56.492, 20.8355
5.600000, 56.473, 18.1535
5.700000, 56.426, 14.7825
5.800000, 56.355, 11.4811
5.900000, 56.264, 8.2784
6.000000, 56.151, 5.0924
6.080000, 56.045, 2.5376
6.150000, 55.940, 0.3449
6.220000, 55.824, -1.8092
6.300000, 55.677, -4.2393
6.400000, 55.473, -7.2862
6.500000, 55.242, -10.3014
6.600000, 54.978, -13.2048
6.700000, 54.684, -16.0549
6.800000, 54.358, -18.8766
6.900000, 53.991, -21.5851
7.000000, 53.580, -24.0944
7.100000, 53.125, -26.4601
7.200000, 52.624, -28.6535
7.300000, 52.073, -30.5458
7.400000, 51.461, -32.0111
7.500000, 50.792, -33.0283
7.620000, 49.949, -33.5352
7.750000, 49.008, -32.8500
7.880000, 48.037, -30.4688
8.000000, 47.257, -26.8181
8.120000, 46.744, -21.9943
8.250000, 46.499, -15.7199
8.380000, 46.532, -9.6903
8.500000, 46.817, -5.3910
8.620000, 47.315, -2.4291
8.750000, 47.909, -0.7612
8.850000, 48.315, -0.5477
9.000000, 48.840, -1.5974
9.120000, 49.159, -3.1303
9.250000, 49.365, -5.3069
9.380000, 49.432, -7.9293
9.500000, 49.369, -10.3304
9.620000, 49.185, -12.5447
9.750000, 48.852, -14.7389
9.880000, 48.397, -16.2940
10.000000, 47.863, -16.8253
10.150000, 47.111, -16.1531
10.300000, 46.449, -13.5345
10.440000, 45.988, -9.1033
10.600000, 45.818, -2.8159
10.750000, 46.172, 2.7898
10.900000, 46.887, 6.9579
11.060000, 47.790, 8.8215
11.200000, 48.624, 8.5464
11.380000, 49.594, 6.2615
11.500000, 50.126, 3.7518
11.720000, 50.869, -1.9701
11.800000, 51.061, -4.2867
12.060000, 51.413, -12.2643
12.200000, 51.439, -16.5080
12.410000, 51.279, -22.5300
12.500000, 51.141, -24.8047
12.650000, 50.828, -28.1372
12.800000, 50.434, -30.7217
13.150000, 49.372, -32.7362
13.200000, 49.237, -32.5260
13.400000, 48.812, -30.4046
13.600000, 48.684, -26.9229
13.800000, 48.918, -23.1240
14.000000, 49.419, -20.1437
14.300000, 50.414, -18.1662
14.500000, 51.060, -18.3162
14.750000, 51.754, -19.4970
15.000000, 52.296, -21.2024
15.250000, 52.707, -22.9791
15.500000, 53.020, -24.5023
15.750000, 53.267, -25.6635
16.000000, 53.478, -26.4791
16.250000, 53.667, -27.0857
16.500000, 53.835, -27.5169
16.750000, 53.974, -27.8139
17.000000, 54.079, -27.9567
17.250000, 54.151, -27.9171
17.500000, 54.198, -27.6088
17.750000, 54.239, -27.0127
18.000000, 54.295, -26.1917
18.250000, 54.379, -25.2954
18.500000, 54.494, -24.4773
18.750000, 54.622, -23.8783
19.000000, 54.741, -23.5650
19.250000, 54.821, -23.5130
19.500000, 54.842, -23.5332
19.750000, 54.801, -23.4003
20.000000, 54.719, -22.8701
20.299999, 54.636, -21.5461
20.600000, 54.672, -19.5959
20.900000, 54.903, -17.6779
21.200001, 55.307, -16.6871
21.400000, 55.615, -16.8286
21.799999, 56.135, -18.9535
22.000000, 56.279, -20.6343
22.400000, 56.244, -24.0568
22.700001, 55.964, -25.4694
23.000000, 55.603, -24.8659
23.299999, 55.407, -21.9973
23.600000, 55.617, -17.8912
24.000000, 56.525, -13.9551
24.299999, 57.376, -13.6122
24.700001, 58.307, -15.9923
25.000000, 58.733, -18.7230
25.400000, 58.964, -22.0163
25.799999, 58.988, -23.7872
26.200001, 59.043, -24.0486
26.500000, 59.177, -23.9082
26.900000, 59.402, -24.0988
27.200001, 59.511, -24.5701
27.600000, 59.511, -24.9767
28.000000, 59.432, -24.3493
28.500000, 59.507, -22.4100
29.000000, 59.838, -21.4334
29.500000, 60.048, -22.4455
30.000000, 59.865, -23.3197
30.400000, 59.594, -22.0111
30.700001, 59.541, -19.6922
31.100000, 59.864, -16.3955
31.500000, 60.512, -15.0355
32.000000, 61.264, -16.7480
32.500000, 61.621, -20.1039
33.000000, 61.660, -22.5547
33.500000, 61.694, -23.2519
34.000000, 61.915, -23.2450
34.500000, 62.225, -23.7457
35.000000, 62.449, -24.6135
35.500000, 62.574, -25.0356
36.000000, 62.703, -24.6772
36.500000, 62.908, -23.9921
37.000000, 63.156, -23.5407
37.500000, 63.372, -23.4109
38.200001, 63.586, -23.1722
38.700001, 63.738, -22.7606
39.500000, 64.067, -22.4664
40.000000, 64.258, -22.8829
40.599998, 64.398, -23.5528
41.200001, 64.512, -23.7478
41.799999, 64.730, -23.7476
42.500000, 65.058, -24.6131
43.099998, 65.222, -25.8703
43.700001, 65.257, -26.4335
44.400002, 65.355, -25.4857
45.000000, 65.639, -24.2187
45.500000, 65.973, -23.7548
46.200001, 66.380, -24.3555
46.799999, 66.539, -25.1911
47.500000, 66.573, -24.9875
48.200001, 66.734, -23.4549
48.700001, 66.985, -22.6222
49.400002, 67.339, -22.6505
50.000000, 67.519, -23.0928
50.799999, 67.693, -23.0108
51.500000, 67.918, -22.6856
52.200001, 68.155, -22.6841
53.000000, 68.378, -22.6708
53.799999, 68.603, -22.3467
54.500000, 68.824, -22.0079
55.200001, 69.052, -21.8378
56.000000, 69.278, -21.8434
57.000000, 69.533, -21.7728
58.000000, 69.802, -22.6006
59.000000, 69.749, -23.6884
60.000000, 69.724, -21.5203
60.799999, 70.142, -19.8803
61.500000, 70.536, -20.3013
62.200001, 70.786, -21.1724
63.000000, 71.023, -21.6054
64.000000, 71.356, -21.9120
65.000000, 71.654, -22.0930
66.000000, 71.949, -22.0156
67.000000, 72.224, -21.9224
68.000000, 72.461, -21.8509
69.000000, 72.654, -21.6040
70.000000, 72.877, -21.1477
71.000000, 73.134, -21.0762
72.000000, 73.355, -21.3260
73.000000, 73.559, -21.4695
74.000000, 73.781, -21.5845
75.000000, 74.001, -21.6899
76.199997, 74.274, -21.6189
77.500000, 74.587, -21.4926
78.800003, 74.885, -21.3710
80.000000, 75.144, -21.2029
81.199997, 75.405, -21.0220
82.500000, 75.686, -20.9650
83.800003, 75.960, -20.9349
85.000000, 76.228, -20.9173
86.199997, 76.497, -20.9975
87.500000, 76.774, -21.0924
88.500000, 76.976, -21.1056
90.000000, 77.273, -21.0266
91.199997, 77.510, -20.9212
92.500000, 77.770, -20.8561
93.800003, 78.022, -20.7938
95.000000, 78.266, -20.6955
96.199997, 78.515, -20.7172
97.500000, 78.767, -20.8533
98.800003, 78.999, -20.9422
100.000000, 79.212, -20.9581
101.500000, 79.501, -20.8855
103.000000, 79.813, -21.0001
104.400002, 80.087, -21.1226
106.000000, 80.406, -21.0571
107.500000, 80.708, -21.0524
109.000000, 80.977, -21.0853
110.599998, 81.251, -21.0108
112.000000, 81.502, -21.0255
113.800003, 81.819, -21.2337
115.000000, 82.034, -21.3380
117.199997, 82.460, -21.5524
118.000000, 82.618, -21.6572
120.599998, 83.085, -22.0407
122.000000, 83.323, -21.9931
124.099998, 83.711, -21.9505
125.000000, 83.880, -21.9980
126.500000, 84.157, -22.1472
128.000000, 84.423, -22.3109
131.500000, 85.052, -22.4987
132.000000, 85.140, -22.5486
134.000000, 85.485, -22.7200
136.000000, 85.836, -22.9180
138.000000, 86.194, -23.1741
140.000000, 86.560, -23.4785
143.000000, 87.096, -23.9235
145.000000, 87.454, -24.1400
147.500000, 87.907, -24.5834
150.000000, 88.351, -25.1740
152.500000, 88.796, -25.7403
155.000000, 89.242, -26.2326
157.500000, 89.693, -26.7874
160.000000, 90.145, -27.4308
162.500000, 90.601, -28.1331
165.000000, 91.054, -28.8857
167.500000, 91.504, -29.7138
170.000000, 91.952, -30.6101
172.500000, 92.398, -31.5726
175.000000, 92.843, -32.6197
177.500000, 93.288, -33.7741
180.000000, 93.733, -35.0032
182.500000, 94.182, -36.2817
185.000000, 94.635, -37.7337
187.500000, 95.089, -39.3737
190.000000, 95.542, -41.1862
192.500000, 95.976, -43.0064
195.000000, 96.404, -44.7900
197.500000, 96.826, -46.7658
200.000000, 97.237, -48.9463
203.000000, 97.713, -51.7453
206.000000, 98.163, -54.7591
209.000000, 98.580, -57.9753
212.000000, 98.972, -61.3165
214.000000, 99.225, -63.5923
218.000000, 99.701, -68.4049
220.000000, 99.916, -70.9353
224.000000, 100.292, -76.2123
227.000000, 100.524, -80.2956
230.000000, 100.712, -84.4461
233.000000, 100.858, -88.6288
236.000000, 100.965, -92.7755
240.000000, 101.039, -98.2079
243.000000, 101.040, -102.1996
247.000000, 100.990, -107.3482
250.000000, 100.920, -111.0114
254.000000, 100.780, -115.6256
258.000000, 100.593, -119.9305
262.000000, 100.369, -123.8717
265.000000, 100.183, -126.5818
269.000000, 99.921, -129.8746
272.000000, 99.720, -132.0856
276.000000, 99.448, -134.7270
280.000000, 99.174, -137.0834
285.000000, 98.839, -139.6724
290.000000, 98.516, -141.8465
295.000000, 98.212, -143.6649
300.000000, 97.923, -145.2547
304.000000, 97.704, -146.4089
307.000000, 97.546, -147.1762
311.000000, 97.347, -148.0957
315.000000, 97.155, -148.9294
320.000000, 96.932, -149.8675
325.000000, 96.722, -150.6566
330.000000, 96.520, -151.3530
335.000000, 96.331, -151.9607
340.000000, 96.159, -152.4808
345.000000, 95.997, -152.9583
350.000000, 95.840, -153.3300
355.000000, 95.689, -153.6424
360.000000, 95.552, -153.9277
365.000000, 95.429, -154.2102
370.000000, 95.311, -154.4841
375.000000, 95.194, -154.6886
382.000000, 95.042, -154.9282
387.000000, 94.941, -155.0856
395.000000, 94.798, -155.3043
400.000000, 94.718, -155.4088
406.000000, 94.627, -155.5300
412.000000, 94.546, -155.6143
418.000000, 94.471, -155.6949
425.000000, 94.397, -155.8153
431.000000, 94.344, -155.9669
437.000000, 94.290, -156.2025
444.000000, 94.217, -156.6605
450.000000, 94.111, -157.1878
455.000000, 93.981, -157.4142
462.000000, 93.802, -157.0801
468.000000, 93.708, -156.5493
475.000000, 93.659, -156.1430
482.000000, 93.624, -155.8820
487.000000, 93.596, -155.7238
494.000000, 93.553, -155.5255
500.000000, 93.516, -155.3856
508.000000, 93.471, -155.1975
515.000000, 93.431, -155.0192
522.000000, 93.390, -154.8185
530.000000, 93.351, -154.5525
538.000000, 93.318, -154.2530
545.000000, 93.297, -153.9866
552.000000, 93.282, -153.7186
560.000000, 93.275, -153.4153
570.000000, 93.273, -153.0277
580.000000, 93.279, -152.6998
590.000000, 93.295, -152.3817
600.000000, 93.312, -152.1466
608.000000, 93.320, -152.0286
615.000000, 93.323, -151.9138
622.000000, 93.324, -151.7975
630.000000, 93.324, -151.6696
640.000000, 93.325, -151.4823
650.000000, 93.324, -151.2914
660.000000, 93.319, -151.1273
670.000000, 93.318, -150.9240
680.000000, 93.317, -150.6813
690.000000, 93.315, -150.4286
700.000000, 93.317, -150.1832
710.000000, 93.324, -149.9286
720.000000, 93.332, -149.6409
730.000000, 93.343, -149.3586
740.000000, 93.358, -149.0658
750.000000, 93.374, -148.7332
762.000000, 93.396, -148.3450
775.000000, 93.422, -147.9680
788.000000, 93.451, -147.6052
800.000000, 93.479, -147.2576
812.000000, 93.510, -146.8947
825.000000, 93.550, -146.5401
838.000000, 93.594, -146.2081
850.000000, 93.634, -145.8972
862.000000, 93.675, -145.5829
875.000000, 93.716, -145.2445
885.000000, 93.749, -144.9899
900.000000, 93.804, -144.6527
912.000000, 93.848, -144.3880
925.000000, 93.895, -144.0813
938.000000, 93.943, -143.7787
950.000000, 93.990, -143.5084
962.000000, 94.037, -143.2902
975.000000, 94.084, -143.0322
988.000000, 94.129, -142.7621
1000.000000, 94.174, -142.4933
1015.000000, 94.232, -142.1587
1030.000000, 94.291, -141.9074
1044.000000, 94.353, -141.6865
1060.000000, 94.425, -141.3735
1075.000000, 94.492, -141.0460
1090.000000, 94.571, -140.7859
1106.000000, 94.665, -140.5244
1120.000000, 94.752, -140.2643
1138.000000, 94.874, -139.9123
1150.000000, 94.959, -139.7062
1172.000000, 95.120, -139.3870
1180.000000, 95.179, -139.3073
1206.000000, 95.383, -139.0655
1220.000000, 95.505, -138.9603
1241.000000, 95.703, -138.9134
1250.000000, 95.788, -138.9002
1265.000000, 95.931, -138.9358
1280.000000, 96.076, -139.0364
1315.000000, 96.419, -139.4652
1320.000000, 96.467, -139.5556
1340.000000, 96.654, -139.9998
1360.000000, 96.822, -140.5598
1380.000000, 96.981, -141.2746
1400.000000, 97.146, -142.0814
1430.000000, 97.384, -143.5341
1450.000000, 97.529, -144.6843
1475.000000, 97.687, -146.3575
1500.000000, 97.807, -148.2398
1525.000000, 97.883, -150.2960
1550.000000, 97.904, -152.5007
1575.000000, 97.858, -154.8484
1600.000000, 97.751, -157.1319
1625.000000, 97.579, -159.4064
1650.000000, 97.327, -161.5184
1675.000000, 97.011, -163.3060
1700.000000, 96.653, -164.8403
1725.000000, 96.224, -166.1204
1750.000000, 95.738, -166.8904
1775.000000, 95.210, -167.1719
1800.000000, 94.660, -166.8382
1825.000000, 94.104, -165.8985
1850.000000, 93.543, -164.3564
1875.000000, 92.982, -162.1039
1900.000000, 92.455, -158.9491
1925.000000, 92.000, -154.9766
1950.000000, 91.639, -150.3503
1975.000000, 91.403, -145.1032
2000.000000, 91.318, -139.4851
2030.000000, 91.410, -132.6300
2060.000000, 91.730, -125.8995
2090.000000, 92.255, -119.7495
2120.000000, 92.950, -114.2022
2140.000000, 93.512, -111.0203
2180.000000, 94.791, -106.1546
2200.000000, 95.498, -104.4379
2240.000000, 97.030, -102.9176
2270.000000, 98.194, -103.6206
2300.000000, 99.322, -105.8410
2330.000000, 100.356, -109.7236
2360.000000, 101.220, -115.0601
2400.000000, 102.010, -123.8249
2430.000000, 102.276, -130.9539
2470.000000, 102.216, -139.9365
2500.000000, 101.935, -145.7455
2540.000000, 101.360, -151.9607
2580.000000, 100.661, -156.3662
2620.000000, 99.938, -159.1566
2650.000000, 99.417, -160.4100
2690.000000, 98.773, -161.2396
2720.000000, 98.326, -161.4021
2760.000000, 97.783, -161.0388
2800.000000, 97.307, -160.1985
2850.000000, 96.799, -158.6987
2900.000000, 96.379, -156.7549
2950.000000, 96.079, -154.5282
3000.000000, 95.898, -152.4861
3040.000000, 95.779, -151.1199
3070.000000, 95.693, -150.0816
3110.000000, 95.601, -148.6237
3150.000000, 95.540, -147.1746
3200.000000, 95.501, -145.4312
3250.000000, 95.502, -143.7845
3300.000000, 95.543, -142.2550
3350.000000, 95.612, -140.9640
3400.000000, 95.698, -139.8138
3450.000000, 95.818, -138.7928
3500.000000, 95.964, -138.1176
3550.000000, 96.105, -137.6698
3600.000000, 96.249, -137.4491
3650.000000, 96.386, -137.4743
3700.000000, 96.502, -137.6301
3750.000000, 96.609, -137.8401
3820.000000, 96.745, -138.3742
3870.000000, 96.813, -138.8311
3950.000000, 96.937, -139.7458
4000.000000, 96.987, -140.5467
4060.000000, 97.047, -141.5174
4120.000000, 97.106, -142.8334
4180.000000, 97.127, -144.3753
4250.000000, 97.140, -146.4013
4310.000000, 97.117, -148.5187
4370.000000, 97.061, -150.9266
4440.000000, 96.926, -154.3727
4500.000000, 96.720, -157.7928
4550.000000, 96.466, -160.9946
4620.000000, 95.924, -165.8263
4680.000000, 95.278, -169.9973
4750.000000, 94.280, -174.6009
4820.000000, 92.995, -178.2686
4870.000000, 91.914, 179.9357
4940.000000, 90.168, 179.0975
5000.000000, 88.472, -179.4467
5080.000000, 86.013, -172.8705
5150.000000, 83.928, -160.5727
5220.000000, 82.567, -140.8960
5300.000000, 82.771, -116.0361
5380.000000, 84.385, -98.9042
5450.000000, 86.086, -91.0330
5520.000000, 87.684, -87.6877
5600.000000, 89.257, -87.4080
5700.000000, 90.799, -90.6794
5800.000000, 91.811, -96.6253
5900.000000, 92.248, -103.8846
6000.000000, 92.123, -110.8112
6080.000000, 91.743, -115.2221
6150.000000, 91.281, -118.1939
6220.000000, 90.733, -120.3976
6300.000000, 90.038, -121.8582
6400.000000, 89.136, -122.2563
6500.000000, 88.267, -121.2966
6600.000000, 87.470, -119.4975
6700.000000, 86.725, -117.1631
6800.000000, 86.030, -114.2710
6900.000000, 85.409, -110.8885
7000.000000, 84.879, -107.1554
7100.000000, 84.421, -103.2410
7200.000000, 84.019, -99.2233
7300.000000, 83.670, -95.1189
7400.000000, 83.356, -91.1329
7500.000000, 83.048, -87.1521
7620.000000, 82.709, -82.1305
7750.000000, 82.427, -76.4120
7880.000000, 82.146, -70.6579
8000.000000, 81.887, -65.3324
8120.000000, 81.649, -59.9717
8250.000000, 81.414, -54.1037
8380.000000, 81.206, -47.9422
8500.000000, 81.070, -41.9222
8620.000000, 81.025, -35.7171
8750.000000, 81.059, -29.2380
8850.000000, 81.134, -24.3798
9000.000000, 81.331, -17.4226
9120.000000, 81.558, -12.2184
9250.000000, 81.864, -7.1058
9380.000000, 82.223, -2.6338
9500.000000, 82.586, 0.6083
9620.000000, 82.919, 2.7562
9750.000000, 83.121, 3.7578
9880.000000, 82.985, 4.0654
10000.000000, 82.476, 5.4250
10150.000000, 81.507, 11.7532
10300.000000, 80.941, 25.5962
10440.000000, 81.577, 41.2558
10600.000000, 83.414, 53.6808
10750.000000, 85.278, 57.8883
10900.000000, 86.758, 57.7413
11060.000000, 87.947, 56.2825
11200.000000, 88.876, 54.6891
11380.000000, 89.969, 50.8194
11500.000000, 90.495, 46.8627
11720.000000, 90.842, 38.5146
11800.000000, 90.785, 35.6889
12060.000000, 90.167, 28.4525
12200.000000, 89.653, 25.7348
12410.000000, 88.593, 23.4612
12500.000000, 88.040, 23.9425
12650.000000, 87.283, 27.6607
12800.000000, 87.111, 32.7442
13150.000000, 88.295, 35.1251
13200.000000, 88.512, 34.0152
13400.000000, 89.150, 25.4684
13600.000000, 88.859, 12.1551
13800.000000, 87.314, -1.0380
14000.000000, 84.828, -9.9663
14300.000000, 80.390, -14.9519
14500.000000, 77.168, -15.1882
14750.000000, 72.195, -9.6627
15000.000000, 67.259, 46.1175
15250.000000, 68.474, 98.8273
15500.000000, 70.881, 110.5458
15750.000000, 72.710, 118.7145
16000.000000, 74.504, 123.7130
16250.000000, 75.814, 122.8432
16500.000000, 76.155, 119.5488
16750.000000, 75.717, 118.3890
17000.000000, 75.004, 120.5784
17250.000000, 74.280, 124.9640
17500.000000, 73.515, 130.5942
17750.000000, 72.615, 139.1385
18000.000000, 72.072, 153.0341
18250.000000, 72.567, 168.4358
18500.000000, 73.870, 179.2062
18750.000000, 75.399, -176.2601
19000.000000, 76.679, -177.9692
19250.000000, 77.168, 175.0724
19500.000000, 76.457, 166.3327
19750.000000, 74.597, 160.2379
20000.000000, 71.963, 159.6112
20300.000000, 68.470, 165.3716
20600.000000, 65.056, 174.0237
20900.000000, 61.464, -175.4416
21200.000000, 57.539, -160.9388
21400.000000, 54.869, -147.9239
21800.000000, 50.085, -113.8718
22000.000000, 47.769, -96.6931
22400.000000, 41.524, -74.3939
22700.000000, 35.757, -65.7053
23000.000000, 30.969, -54.7755
23300.000000, 28.931, 94.1649
23600.000000, 28.460, 132.3605
24000.000000, 28.036, -97.1918
