* Measurement data measured by REW V5.31
* Source: Headset (DS by VECLAN.COM), MICROPHONE (Master Volume), L, volume: 1.000. Timing signal peak level -25.2 dBFS, measurement signal peak level -10.3 dBFS
* Format: 4M Log Swept Sine, 1 sweep at -12.0 dBFS using an acoustic timing reference
* Dated: Apr 13, 2024 10:08:57 PM
* REW Settings:
*  C-weighting compensation: Off
*  Target level: 85.0 dB
* Note: ; Delay -0.0671 ms (-23 mm, -0.91 in) using estimated IR delay relative to Acoustic reference played from HEADPHONE L with no timing offset
* Measurement: Nokia Earbuds L3
* Smoothing: 1/24 octave
* Frequency Step: 1/48 octave
* Start Frequency: 1.000 Hz
*
* Freq(Hz), SPL(dB), Phase(degrees)
1.000000, 56.521, 56.6312
1.015000, 56.481, 58.7240
1.030000, 56.449, 60.8028
1.044000, 56.429, 62.7203
1.060000, 56.417, 64.8728
1.075000, 56.418, 66.8417
1.090000, 56.431, 68.7547
1.106000, 56.462, 70.7383
1.120000, 56.505, 72.4453
1.138000, 56.585, 74.6092
1.150000, 56.652, 76.0287
1.172000, 56.802, 78.5641
1.180000, 56.864, 79.4571
1.206000, 57.088, 82.2671
1.220000, 57.221, 83.7166
1.241000, 57.432, 85.8022
1.250000, 57.526, 86.6626
1.265000, 57.685, 88.0512
1.280000, 57.847, 89.3831
1.315000, 58.225, 92.2716
1.320000, 58.278, 92.6596
1.340000, 58.484, 94.1516
1.360000, 58.678, 95.5511
1.380000, 58.857, 96.8225
1.400000, 59.016, 97.9925
1.430000, 59.208, 99.5926
1.450000, 59.300, 100.5603
1.475000, 59.372, 101.6618
1.500000, 59.410, 102.6456
1.525000, 59.419, 103.5209
1.550000, 59.404, 104.3005
1.575000, 59.367, 104.9752
1.600000, 59.310, 105.5393
1.625000, 59.236, 106.0421
1.650000, 59.147, 106.4932
1.675000, 59.045, 106.9011
1.700000, 58.933, 107.2734
1.725000, 58.813, 107.6169
1.750000, 58.687, 107.9378
1.775000, 58.559, 108.2245
1.800000, 58.429, 108.4648
1.825000, 58.300, 108.6910
1.850000, 58.172, 108.8795
1.875000, 58.041, 109.0015
1.900000, 57.906, 109.0547
1.925000, 57.766, 109.0490
1.950000, 57.620, 108.9958
1.975000, 57.466, 108.8891
2.000000, 57.305, 108.7235
2.030000, 57.101, 108.5059
2.060000, 56.882, 108.2823
2.090000, 56.647, 108.0701
2.120000, 56.396, 107.8866
2.140000, 56.218, 107.7887
2.180000, 55.837, 107.6484
2.200000, 55.635, 107.5918
2.240000, 55.225, 107.4634
2.270000, 54.914, 107.3129
2.300000, 54.597, 107.1183
2.330000, 54.267, 106.8919
2.360000, 53.919, 106.6482
2.400000, 53.417, 106.2790
2.430000, 53.004, 106.0254
2.470000, 52.392, 105.7759
2.500000, 51.881, 105.6954
2.540000, 51.114, 105.7974
2.580000, 50.209, 106.1645
2.620000, 49.086, 106.7352
2.650000, 48.102, 107.3206
2.690000, 46.659, 108.3700
2.720000, 45.522, 109.4259
2.760000, 44.004, 111.3428
2.800000, 42.567, 114.0512
2.850000, 41.026, 119.2523
2.900000, 39.945, 127.6650
2.950000, 39.480, 141.0734
3.000000, 39.622, 160.7587
3.040000, 40.082, 178.8773
3.070000, 40.578, -168.7183
3.110000, 41.380, -155.7078
3.150000, 42.275, -146.6790
3.200000, 43.414, -139.4995
3.250000, 44.459, -135.2746
3.300000, 45.336, -132.9060
3.350000, 46.116, -131.7096
3.400000, 46.885, -131.2756
3.450000, 47.643, -131.3174
3.500000, 48.370, -131.6570
3.550000, 49.046, -132.1952
3.600000, 49.649, -132.9056
3.650000, 50.163, -133.7648
3.700000, 50.581, -134.8181
3.750000, 50.913, -136.1053
3.820000, 51.256, -138.2137
3.870000, 51.432, -139.8125
3.950000, 51.626, -142.3618
4.000000, 51.710, -143.9315
4.060000, 51.779, -145.8563
4.120000, 51.802, -147.9831
4.180000, 51.772, -150.3210
4.250000, 51.676, -153.2112
4.310000, 51.545, -155.6840
4.370000, 51.374, -158.0878
4.440000, 51.124, -160.9302
4.500000, 50.865, -163.5746
4.550000, 50.618, -165.9502
4.620000, 50.220, -169.4913
4.680000, 49.832, -172.6094
4.750000, 49.322, -176.2294
4.820000, 48.745, -179.9709
4.870000, 48.290, 177.1211
4.940000, 47.601, 172.6343
5.000000, 46.971, 168.3988
5.080000, 46.088, 162.3139
5.150000, 45.267, 156.6460
5.220000, 44.362, 150.3241
5.300000, 43.252, 141.7948
5.380000, 42.181, 131.6429
5.450000, 41.385, 121.5887
5.520000, 40.797, 110.8213
5.600000, 40.372, 97.6131
5.700000, 40.117, 80.2727
5.800000, 40.068, 64.3516
5.900000, 40.178, 51.7227
6.000000, 40.490, 41.6168
6.080000, 40.817, 34.9152
6.150000, 41.075, 30.1786
6.220000, 41.238, 26.5558
6.300000, 41.292, 23.5886
6.400000, 41.275, 21.1186
6.500000, 41.246, 19.9425
6.600000, 41.234, 20.3171
6.700000, 41.246, 22.3818
6.800000, 41.274, 25.8661
6.900000, 41.335, 30.1649
7.000000, 41.584, 34.7747
7.100000, 42.132, 39.4820
7.200000, 42.846, 43.6792
7.300000, 43.613, 46.7448
7.400000, 44.403, 48.6595
7.500000, 45.224, 49.7246
7.620000, 46.174, 50.0240
7.750000, 47.067, 49.2029
7.880000, 47.822, 47.4924
8.000000, 48.408, 45.4628
8.120000, 48.883, 43.0741
8.250000, 49.275, 40.0776
8.380000, 49.553, 36.9154
8.500000, 49.717, 33.9267
8.620000, 49.794, 30.7921
8.750000, 49.793, 27.3806
8.850000, 49.738, 24.8149
9.000000, 49.573, 20.9524
9.120000, 49.382, 17.8954
9.250000, 49.130, 14.6898
9.380000, 48.834, 11.5279
9.500000, 48.536, 8.6236
9.620000, 48.225, 5.7549
9.750000, 47.875, 2.6385
9.880000, 47.514, -0.5629
10.000000, 47.176, -3.6170
10.150000, 46.746, -7.6290
10.300000, 46.310, -11.8637
10.440000, 45.898, -16.0544
10.600000, 45.409, -21.0083
10.750000, 44.925, -25.7518
10.900000, 44.407, -30.4796
11.060000, 43.793, -35.1715
11.200000, 43.199, -38.8624
11.380000, 42.358, -42.4486
11.500000, 41.745, -43.7662
11.720000, 40.669, -43.4081
11.800000, 40.344, -42.1974
12.060000, 39.745, -34.7784
12.200000, 39.892, -29.8783
12.410000, 40.598, -23.4159
12.500000, 40.981, -21.4451
12.650000, 41.660, -19.1962
12.800000, 42.279, -17.8234
13.150000, 43.155, -15.7506
13.200000, 43.220, -15.2664
13.400000, 43.376, -12.2841
13.600000, 43.595, -7.0917
13.800000, 44.101, 0.0275
14.000000, 45.069, 7.0561
14.300000, 47.151, 13.4281
14.500000, 48.565, 14.0536
14.750000, 50.052, 11.7563
15.000000, 51.079, 7.3235
15.250000, 51.601, 1.8888
15.500000, 51.593, -3.3389
15.750000, 51.050, -7.2249
16.000000, 50.026, -7.9607
16.250000, 48.858, -3.3727
16.500000, 48.247, 7.3729
16.750000, 48.907, 19.1967
17.000000, 50.343, 25.3285
17.250000, 51.830, 25.2251
17.500000, 52.906, 21.0039
17.750000, 53.492, 14.5785
18.000000, 53.591, 7.1457
18.250000, 53.226, -0.4250
18.500000, 52.422, -7.2075
18.750000, 51.236, -12.2484
19.000000, 49.809, -14.3077
19.250000, 48.496, -12.5254
19.500000, 47.796, -7.9483
19.750000, 47.934, -4.0085
20.000000, 48.591, -3.6657
20.299999, 49.445, -8.0694
20.600000, 50.002, -15.6270
20.900000, 50.185, -24.1837
21.200001, 50.054, -32.0759
21.400000, 49.855, -36.3598
21.799999, 49.426, -41.8465
22.000000, 49.299, -43.1616
22.400000, 49.310, -44.2568
22.700001, 49.421, -44.6282
23.000000, 49.455, -44.5822
23.299999, 49.369, -43.3386
23.600000, 49.291, -40.0897
24.000000, 49.624, -33.3464
24.299999, 50.315, -28.9701
24.700001, 51.420, -26.9858
25.000000, 52.023, -28.1826
25.400000, 52.235, -31.2901
25.799999, 51.735, -33.1803
26.200001, 50.825, -30.6158
26.500000, 50.341, -24.9738
26.900000, 50.548, -16.1000
27.200001, 51.198, -12.2014
27.600000, 52.043, -11.8401
28.000000, 52.441, -14.5144
28.500000, 52.355, -17.6703
29.000000, 52.305, -18.2582
29.500000, 52.934, -19.3739
30.000000, 53.820, -25.0038
30.400000, 54.180, -32.1401
30.700001, 54.098, -37.6607
31.100000, 53.513, -43.1283
31.500000, 52.628, -43.8575
32.000000, 52.139, -36.7206
32.500000, 53.055, -28.7338
33.000000, 54.301, -26.7997
33.500000, 55.011, -27.8235
34.000000, 55.266, -27.7818
34.500000, 55.468, -25.7196
35.000000, 55.783, -23.2327
35.500000, 56.048, -21.4250
36.000000, 56.159, -19.8025
36.500000, 56.204, -17.9643
37.000000, 56.244, -16.3868
37.500000, 56.208, -15.3437
38.200001, 56.045, -13.8242
38.700001, 56.062, -13.0600
39.500000, 56.181, -15.4677
40.000000, 55.916, -18.2831
40.599998, 55.280, -18.9621
41.200001, 55.130, -15.3773
41.799999, 55.851, -12.9995
42.500000, 56.640, -14.9026
43.099998, 56.860, -15.6045
43.700001, 57.285, -12.9465
44.400002, 58.427, -11.2186
45.000000, 59.155, -13.7679
45.500000, 59.225, -16.2414
46.200001, 58.903, -15.5223
46.799999, 59.036, -11.8054
47.500000, 59.651, -10.3220
48.200001, 59.985, -12.0979
48.700001, 60.053, -13.4643
49.400002, 60.180, -15.5484
50.000000, 60.204, -18.2127
50.799999, 59.880, -20.2681
51.500000, 59.828, -18.3255
52.200001, 60.411, -16.5719
53.000000, 61.078, -17.8388
53.799999, 61.330, -18.7509
54.500000, 61.540, -17.5120
55.200001, 61.877, -16.1188
56.000000, 62.153, -15.1986
57.000000, 62.382, -13.5638
58.000000, 62.580, -14.2287
59.000000, 62.049, -14.1662
60.000000, 62.112, -7.7365
60.799999, 62.975, -7.0327
61.500000, 63.430, -10.0969
62.200001, 63.601, -12.7162
63.000000, 63.839, -14.2833
64.000000, 64.171, -15.7943
65.000000, 64.448, -15.9496
66.000000, 64.810, -15.4052
67.000000, 65.118, -15.0290
68.000000, 65.376, -14.4938
69.000000, 65.641, -14.3541
70.000000, 65.829, -14.8090
71.000000, 65.960, -14.9459
72.000000, 66.164, -14.6670
73.000000, 66.451, -14.3923
74.000000, 66.768, -14.3612
75.000000, 67.045, -14.3481
76.199997, 67.366, -14.2366
77.500000, 67.623, -14.5847
78.800003, 67.798, -14.5268
80.000000, 68.009, -14.5337
81.199997, 68.210, -14.6684
82.500000, 68.461, -14.4224
83.800003, 68.778, -14.0476
85.000000, 69.095, -13.9475
86.199997, 69.353, -14.0894
87.500000, 69.594, -14.0083
88.500000, 69.795, -13.9049
90.000000, 70.122, -13.9380
91.199997, 70.382, -14.0608
92.500000, 70.662, -14.1210
93.800003, 70.919, -14.1500
95.000000, 71.126, -14.0332
96.199997, 71.322, -13.7961
97.500000, 71.541, -13.5962
98.800003, 71.766, -13.6299
100.000000, 71.965, -13.8862
101.500000, 72.196, -14.0786
103.000000, 72.455, -13.8965
104.400002, 72.784, -13.3249
106.000000, 73.195, -13.4970
107.500000, 73.491, -13.5499
109.000000, 73.806, -13.6278
110.599998, 74.093, -13.8926
112.000000, 74.333, -13.8700
113.800003, 74.658, -13.8934
115.000000, 74.854, -14.0295
117.199997, 75.205, -14.3288
118.000000, 75.345, -14.6194
120.599998, 75.710, -15.3566
122.000000, 76.014, -14.8385
124.099998, 76.505, -14.3529
125.000000, 76.676, -14.0915
126.500000, 76.911, -13.5349
128.000000, 77.134, -13.1757
131.500000, 77.584, -15.2436
132.000000, 77.630, -15.5479
134.000000, 77.874, -15.5538
136.000000, 78.379, -14.3623
138.000000, 78.883, -14.3415
140.000000, 79.273, -14.4523
143.000000, 79.772, -14.7436
145.000000, 80.124, -14.8389
147.500000, 80.533, -15.0498
150.000000, 80.889, -15.3721
152.500000, 81.284, -15.2651
155.000000, 81.776, -15.5929
157.500000, 82.229, -16.2507
160.000000, 82.628, -16.5149
162.500000, 83.065, -16.5237
165.000000, 83.507, -16.8481
167.500000, 83.925, -17.3447
170.000000, 84.349, -17.8210
172.500000, 84.782, -18.3095
175.000000, 85.205, -18.7940
177.500000, 85.624, -19.2526
180.000000, 86.066, -19.7877
182.500000, 86.529, -20.4118
185.000000, 86.983, -21.0038
187.500000, 87.395, -21.6558
190.000000, 87.789, -22.3658
192.500000, 88.240, -23.2246
195.000000, 88.721, -24.3624
197.500000, 89.191, -25.4667
200.000000, 89.655, -26.5947
203.000000, 90.219, -28.1762
206.000000, 90.775, -29.9370
209.000000, 91.313, -31.7399
212.000000, 91.853, -33.6840
214.000000, 92.218, -35.0811
218.000000, 92.938, -38.1790
220.000000, 93.288, -39.8736
224.000000, 93.970, -43.4894
227.000000, 94.472, -46.4279
230.000000, 94.956, -49.6570
233.000000, 95.408, -53.1624
236.000000, 95.826, -56.8916
240.000000, 96.322, -62.1101
243.000000, 96.638, -66.0853
247.000000, 96.989, -71.5471
250.000000, 97.209, -75.7578
254.000000, 97.441, -81.4694
258.000000, 97.598, -87.2471
262.000000, 97.677, -92.9916
265.000000, 97.682, -97.2192
269.000000, 97.624, -102.7505
272.000000, 97.536, -106.7158
276.000000, 97.365, -111.6460
280.000000, 97.146, -116.2062
285.000000, 96.817, -121.3534
290.000000, 96.452, -125.8232
295.000000, 96.069, -129.6775
300.000000, 95.679, -132.9815
304.000000, 95.367, -135.2647
307.000000, 95.138, -136.8056
311.000000, 94.849, -138.6962
315.000000, 94.575, -140.3624
320.000000, 94.247, -142.1585
325.000000, 93.933, -143.6882
330.000000, 93.634, -145.0338
335.000000, 93.359, -146.2182
340.000000, 93.103, -147.1996
345.000000, 92.854, -148.0453
350.000000, 92.626, -148.8190
355.000000, 92.408, -149.4953
360.000000, 92.196, -150.0851
365.000000, 92.001, -150.6084
370.000000, 91.823, -151.0319
375.000000, 91.653, -151.3999
382.000000, 91.436, -151.9310
387.000000, 91.289, -152.2725
395.000000, 91.072, -152.6682
400.000000, 90.945, -152.9305
406.000000, 90.802, -153.2163
412.000000, 90.665, -153.4592
418.000000, 90.533, -153.7357
425.000000, 90.383, -154.0257
431.000000, 90.257, -154.2657
437.000000, 90.136, -154.5356
444.000000, 89.986, -154.8641
450.000000, 89.832, -155.1428
455.000000, 89.681, -155.2939
462.000000, 89.449, -155.1109
468.000000, 89.269, -154.4280
475.000000, 89.146, -153.3112
482.000000, 89.117, -152.3100
487.000000, 89.123, -151.7978
494.000000, 89.144, -151.3686
500.000000, 89.156, -151.2448
508.000000, 89.156, -151.2222
515.000000, 89.142, -151.1837
522.000000, 89.120, -151.1684
530.000000, 89.096, -151.1451
538.000000, 89.067, -151.0802
545.000000, 89.039, -150.9880
552.000000, 89.016, -150.9043
560.000000, 88.992, -150.8221
570.000000, 88.963, -150.7188
580.000000, 88.933, -150.6213
590.000000, 88.914, -150.5177
600.000000, 88.893, -150.3726
608.000000, 88.867, -150.2625
615.000000, 88.842, -150.1655
622.000000, 88.820, -150.0728
630.000000, 88.794, -149.9657
640.000000, 88.761, -149.7788
650.000000, 88.739, -149.5839
660.000000, 88.718, -149.4021
670.000000, 88.691, -149.1731
680.000000, 88.662, -148.9035
690.000000, 88.641, -148.6582
700.000000, 88.622, -148.4206
710.000000, 88.603, -148.1275
720.000000, 88.585, -147.7808
730.000000, 88.570, -147.4756
740.000000, 88.559, -147.1882
750.000000, 88.551, -146.8726
762.000000, 88.547, -146.4774
775.000000, 88.552, -146.0222
788.000000, 88.550, -145.5803
800.000000, 88.550, -145.2092
812.000000, 88.557, -144.7983
825.000000, 88.567, -144.3509
838.000000, 88.579, -143.9109
850.000000, 88.591, -143.5224
862.000000, 88.599, -143.1671
875.000000, 88.613, -142.7659
885.000000, 88.624, -142.4296
900.000000, 88.637, -141.9893
912.000000, 88.641, -141.6134
925.000000, 88.653, -141.1782
938.000000, 88.664, -140.7736
950.000000, 88.677, -140.3804
962.000000, 88.693, -140.0145
975.000000, 88.705, -139.5900
988.000000, 88.715, -139.1447
1000.000000, 88.727, -138.7025
1015.000000, 88.747, -138.1353
1030.000000, 88.771, -137.6064
1044.000000, 88.791, -137.1074
1060.000000, 88.816, -136.5143
1075.000000, 88.841, -135.9237
1090.000000, 88.879, -135.3182
1106.000000, 88.937, -134.6562
1120.000000, 88.993, -134.0522
1138.000000, 89.061, -133.3075
1150.000000, 89.110, -132.8368
1172.000000, 89.209, -131.9667
1180.000000, 89.246, -131.6842
1206.000000, 89.373, -130.6658
1220.000000, 89.457, -130.1150
1241.000000, 89.593, -129.3332
1250.000000, 89.650, -128.9784
1265.000000, 89.743, -128.3997
1280.000000, 89.840, -127.8666
1315.000000, 90.094, -126.7307
1320.000000, 90.133, -126.5684
1340.000000, 90.278, -125.9351
1360.000000, 90.404, -125.3450
1380.000000, 90.539, -124.8277
1400.000000, 90.691, -124.3487
1430.000000, 90.932, -123.7496
1450.000000, 91.088, -123.3848
1475.000000, 91.290, -122.9829
1500.000000, 91.499, -122.6864
1525.000000, 91.706, -122.5201
1550.000000, 91.910, -122.4552
1575.000000, 92.099, -122.4960
1600.000000, 92.291, -122.6357
1625.000000, 92.472, -122.9411
1650.000000, 92.637, -123.3400
1675.000000, 92.787, -123.8308
1700.000000, 92.907, -124.4456
1725.000000, 92.994, -125.1640
1750.000000, 93.047, -125.9577
1775.000000, 93.043, -126.7584
1800.000000, 92.975, -127.4346
1825.000000, 92.894, -128.1297
1850.000000, 92.800, -128.4364
1875.000000, 92.633, -128.3715
1900.000000, 92.429, -127.8918
1925.000000, 92.182, -126.8744
1950.000000, 91.922, -125.0914
1975.000000, 91.702, -122.6699
2000.000000, 91.531, -119.5946
2030.000000, 91.456, -114.6600
2060.000000, 91.640, -108.6869
2090.000000, 92.123, -102.7477
2120.000000, 92.830, -97.6274
2140.000000, 93.402, -94.6236
2180.000000, 94.826, -89.7474
2200.000000, 95.658, -88.2513
2240.000000, 97.448, -87.6596
2270.000000, 98.820, -89.2634
2300.000000, 100.151, -92.8317
2330.000000, 101.373, -98.4318
2360.000000, 102.412, -105.7743
2400.000000, 103.341, -117.7684
2430.000000, 103.611, -127.4049
2470.000000, 103.433, -139.4832
2500.000000, 103.005, -147.2701
2540.000000, 102.200, -155.5533
2580.000000, 101.275, -161.4795
2620.000000, 100.348, -165.4413
2650.000000, 99.692, -167.4302
2690.000000, 98.888, -169.0833
2720.000000, 98.338, -169.7404
2760.000000, 97.699, -169.9371
2800.000000, 97.188, -169.8779
2850.000000, 96.626, -170.1300
2900.000000, 96.041, -170.1084
2950.000000, 95.502, -169.4932
3000.000000, 95.043, -168.6116
3040.000000, 94.715, -167.8271
3070.000000, 94.486, -167.1937
3110.000000, 94.205, -166.2486
3150.000000, 93.955, -165.2239
3200.000000, 93.682, -163.9267
3250.000000, 93.435, -162.6497
3300.000000, 93.226, -161.2695
3350.000000, 93.051, -159.9739
3400.000000, 92.895, -158.6776
3450.000000, 92.772, -157.3319
3500.000000, 92.690, -156.0778
3550.000000, 92.630, -154.8835
3600.000000, 92.590, -153.7773
3650.000000, 92.571, -152.7257
3700.000000, 92.570, -151.7581
3750.000000, 92.589, -150.8174
3820.000000, 92.667, -149.6941
3870.000000, 92.749, -149.1250
3950.000000, 92.928, -148.5988
4000.000000, 93.065, -148.6391
4060.000000, 93.246, -149.0585
4120.000000, 93.449, -150.0048
4180.000000, 93.644, -151.6705
4250.000000, 93.829, -154.4673
4310.000000, 93.928, -157.6431
4370.000000, 93.941, -161.5793
4440.000000, 93.799, -167.1144
4500.000000, 93.485, -172.6169
4550.000000, 93.051, -177.4496
4620.000000, 92.144, 175.7957
4680.000000, 91.066, 170.5800
4750.000000, 89.483, 165.9050
4820.000000, 87.608, 163.3425
4870.000000, 86.119, 163.0615
4940.000000, 83.858, 165.3648
5000.000000, 81.797, 170.5750
5080.000000, 79.099, -175.6646
5150.000000, 77.353, -155.5243
5220.000000, 76.995, -131.2626
5300.000000, 78.222, -109.1489
5380.000000, 80.100, -96.1487
5450.000000, 81.737, -90.0396
5520.000000, 83.235, -87.0798
5600.000000, 84.744, -86.3625
5700.000000, 86.329, -88.5294
5800.000000, 87.487, -93.6259
5900.000000, 88.133, -100.2445
6000.000000, 88.278, -107.3285
6080.000000, 88.060, -112.3894
6150.000000, 87.689, -116.0649
6220.000000, 87.192, -118.8792
6300.000000, 86.548, -120.8927
6400.000000, 85.701, -122.0718
6500.000000, 84.851, -121.8833
6600.000000, 84.047, -120.6855
6700.000000, 83.293, -118.7282
6800.000000, 82.608, -116.1706
6900.000000, 81.996, -113.2517
7000.000000, 81.453, -109.8803
7100.000000, 80.995, -106.1660
7200.000000, 80.616, -102.4163
7300.000000, 80.292, -98.7141
7400.000000, 79.997, -95.1503
7500.000000, 79.719, -91.5968
7620.000000, 79.426, -87.3825
7750.000000, 79.149, -82.9320
7880.000000, 78.807, -78.5584
8000.000000, 78.432, -74.3905
8120.000000, 78.001, -69.8357
8250.000000, 77.546, -63.7588
8380.000000, 77.287, -56.8932
8500.000000, 77.206, -51.0964
8620.000000, 77.167, -45.7592
8750.000000, 77.139, -40.1795
8850.000000, 77.148, -35.9289
9000.000000, 77.254, -29.9137
9120.000000, 77.410, -25.6670
9250.000000, 77.620, -22.0141
9380.000000, 77.800, -19.6449
9500.000000, 77.826, -18.7261
9620.000000, 77.583, -18.4597
9750.000000, 76.911, -17.5230
9880.000000, 75.872, -13.6619
10000.000000, 74.878, -5.5891
10150.000000, 74.284, 10.0830
10300.000000, 74.882, 26.7399
10440.000000, 76.225, 37.8482
10600.000000, 77.928, 43.8042
10750.000000, 79.180, 44.6879
10900.000000, 79.923, 43.8689
11060.000000, 80.311, 43.6366
11200.000000, 80.513, 44.6597
11380.000000, 80.815, 47.4022
11500.000000, 81.161, 49.6745
11720.000000, 82.127, 51.9050
11800.000000, 82.469, 51.5908
12060.000000, 83.157, 48.6261
12200.000000, 83.359, 46.8672
12410.000000, 83.537, 43.7724
12500.000000, 83.566, 42.2197
12650.000000, 83.564, 39.3120
12800.000000, 83.472, 35.5487
13150.000000, 82.283, 27.0149
13200.000000, 82.102, 26.2561
13400.000000, 81.519, 21.3637
13600.000000, 80.417, 13.2427
13800.000000, 78.346, 6.6855
14000.000000, 75.673, 5.0524
14300.000000, 71.307, 10.0935
14500.000000, 68.005, 21.2343
14750.000000, 64.721, 59.3702
15000.000000, 65.602, 98.9345
15250.000000, 68.448, 117.1646
15500.000000, 71.211, 120.4254
15750.000000, 72.773, 114.3331
16000.000000, 73.026, 106.3764
16250.000000, 72.292, 100.4673
16500.000000, 70.903, 98.5641
16750.000000, 69.201, 101.6157
17000.000000, 67.514, 109.8738
17250.000000, 66.189, 122.5413
17500.000000, 65.471, 138.5046
17750.000000, 65.642, 155.8153
18000.000000, 66.563, 169.5878
18250.000000, 67.668, 179.0542
18500.000000, 68.850, -173.6161
18750.000000, 70.236, -168.8357
19000.000000, 71.681, -168.5656
19250.000000, 72.764, -173.7956
19500.000000, 73.038, 176.7467
19750.000000, 72.384, 165.6724
20000.000000, 70.947, 154.3281
20300.000000, 68.323, 139.3204
20600.000000, 64.522, 122.5308
20900.000000, 59.447, 105.0203
21200.000000, 53.609, 85.0133
21400.000000, 49.961, 69.3262
21800.000000, 44.773, 44.4296
22000.000000, 42.665, 40.3236
22400.000000, 37.383, 42.4481
22700.000000, 33.149, 44.4299
23000.000000, 30.236, 53.7436
23300.000000, 28.801, -77.0762
23600.000000, 28.248, -69.8404
24000.000000, 27.832, -111.8691
