* Measurement data measured by REW V5.31
* Source: Headset (DS by VECLAN.COM), MICROPHONE (Master Volume), L, volume: 0.720. Timing signal peak level -26.6 dBFS, measurement signal peak level -9.9 dBFS
* Format: 4M Log Swept Sine, 1 sweep at -12.0 dBFS using an acoustic timing reference
* Dated: Apr 20, 2024 10:59:50 PM
* REW Settings:
*  C-weighting compensation: Off
*  Target level: 75.0 dB
* Note: ; Delay -0.0666 ms (-23 mm, -0.9 in) using estimated IR delay relative to Acoustic reference played from HEADPHONE L with no timing offset
* Measurement: Nokia Earbuds L3
* Smoothing: 1/24 octave
* Frequency Step: 1/48 octave
* Start Frequency: 1.000 Hz
*
* Freq(Hz), SPL(dB), Phase(degrees)
1.000000, 67.302, 29.8601
1.015000, 67.320, 29.6217
1.030000, 67.335, 29.3804
1.044000, 67.347, 29.1529
1.060000, 67.357, 28.8900
1.075000, 67.364, 28.6405
1.090000, 67.367, 28.3864
1.106000, 67.369, 28.1018
1.120000, 67.370, 27.8273
1.138000, 67.373, 27.4311
1.150000, 67.374, 27.1405
1.172000, 67.377, 26.5498
1.180000, 67.377, 26.3131
1.206000, 67.375, 25.4927
1.220000, 67.371, 25.0215
1.241000, 67.361, 24.2811
1.250000, 67.355, 23.9527
1.265000, 67.341, 23.3927
1.280000, 67.324, 22.8187
1.315000, 67.262, 21.4390
1.320000, 67.251, 21.2386
1.340000, 67.199, 20.4323
1.360000, 67.135, 19.6244
1.380000, 67.057, 18.7815
1.400000, 66.964, 17.9329
1.430000, 66.796, 16.6890
1.450000, 66.661, 15.8850
1.475000, 66.465, 14.8930
1.500000, 66.234, 13.8568
1.525000, 65.970, 12.7467
1.550000, 65.675, 11.5616
1.575000, 65.356, 10.2837
1.600000, 65.014, 8.9005
1.625000, 64.656, 7.4574
1.650000, 64.285, 5.9618
1.675000, 63.905, 4.4224
1.700000, 63.521, 2.8494
1.725000, 63.136, 1.2543
1.750000, 62.755, -0.3504
1.775000, 62.383, -1.9680
1.800000, 62.022, -3.6013
1.825000, 61.677, -5.2114
1.850000, 61.343, -6.8303
1.875000, 61.012, -8.5133
1.900000, 60.681, -10.2835
1.925000, 60.349, -12.1447
1.950000, 60.019, -14.0951
1.975000, 59.690, -16.1472
2.000000, 59.362, -18.3093
2.030000, 58.973, -20.9890
2.060000, 58.588, -23.7387
2.090000, 58.210, -26.5258
2.120000, 57.839, -29.3106
2.140000, 57.596, -31.1444
2.180000, 57.123, -34.7225
2.200000, 56.894, -36.4703
2.240000, 56.450, -39.9484
2.270000, 56.130, -42.6171
2.300000, 55.820, -45.3541
2.330000, 55.517, -48.1549
2.360000, 55.220, -51.0055
2.400000, 54.831, -54.8893
2.430000, 54.543, -57.7904
2.470000, 54.159, -61.5509
2.500000, 53.870, -64.2241
2.540000, 53.481, -67.4942
2.580000, 53.086, -70.4076
2.620000, 52.690, -73.1129
2.650000, 52.393, -75.0476
2.690000, 51.998, -77.5232
2.720000, 51.702, -79.2972
2.760000, 51.307, -81.5238
2.800000, 50.912, -83.5807
2.850000, 50.417, -85.7336
2.900000, 49.918, -87.2151
2.950000, 49.393, -87.8157
3.000000, 48.796, -87.5103
3.040000, 48.274, -86.6110
3.070000, 47.873, -85.5406
3.110000, 47.351, -83.5721
3.150000, 46.871, -80.9825
3.200000, 46.378, -76.9581
3.250000, 46.062, -72.2316
3.300000, 45.979, -67.0485
3.350000, 46.152, -61.3984
3.400000, 46.545, -55.4885
3.450000, 47.103, -49.8595
3.500000, 47.765, -44.9752
3.550000, 48.474, -41.0933
3.600000, 49.174, -38.3152
3.650000, 49.826, -36.5603
3.700000, 50.443, -35.5695
3.750000, 51.070, -35.0368
3.820000, 51.968, -34.8525
3.870000, 52.601, -35.0364
3.950000, 53.549, -35.7983
4.000000, 54.075, -36.5815
4.060000, 54.627, -37.8356
4.120000, 55.107, -39.3815
4.180000, 55.528, -41.1062
4.250000, 55.952, -43.2274
4.310000, 56.267, -45.0405
4.370000, 56.541, -46.8461
4.440000, 56.812, -49.0829
4.500000, 56.997, -51.1833
4.550000, 57.119, -53.0206
4.620000, 57.240, -55.6366
4.680000, 57.302, -57.8123
4.750000, 57.328, -60.2182
4.820000, 57.306, -62.6424
4.870000, 57.261, -64.4756
4.940000, 57.153, -67.1391
5.000000, 57.017, -69.4330
5.080000, 56.767, -72.3385
5.150000, 56.487, -74.6836
5.220000, 56.157, -77.0438
5.300000, 55.714, -79.8486
5.380000, 55.173, -82.6360
5.450000, 54.603, -84.9011
5.520000, 53.940, -86.8763
5.600000, 53.098, -88.9104
5.700000, 51.878, -91.2129
5.800000, 50.330, -92.8939
5.900000, 48.186, -93.1021
6.000000, 45.141, -90.5139
6.080000, 42.403, -84.6711
6.150000, 40.343, -74.1457
6.220000, 39.244, -54.9205
6.300000, 39.630, -24.2436
6.400000, 41.868, 3.4295
6.500000, 44.554, 14.8826
6.600000, 46.709, 19.0099
6.700000, 48.292, 19.7810
6.800000, 49.576, 18.9885
6.900000, 50.628, 17.6186
7.000000, 51.452, 15.9769
7.100000, 52.041, 13.9519
7.200000, 52.441, 11.7779
7.300000, 52.720, 9.7854
7.400000, 52.902, 8.0115
7.500000, 52.979, 6.2996
7.620000, 52.969, 4.5123
7.750000, 52.877, 3.2405
7.880000, 52.704, 2.6017
8.000000, 52.530, 2.4949
8.120000, 52.402, 2.9165
8.250000, 52.316, 3.9524
8.380000, 52.320, 5.1095
8.500000, 52.445, 5.9722
8.620000, 52.677, 6.5930
8.750000, 52.999, 6.5889
8.850000, 53.276, 5.9172
9.000000, 53.729, 3.9823
9.120000, 54.080, 1.6700
9.250000, 54.412, -1.6801
9.380000, 54.690, -5.7600
9.500000, 54.886, -9.9593
9.620000, 55.013, -14.6174
9.750000, 55.071, -20.1525
9.880000, 55.032, -25.8932
10.000000, 54.904, -31.4015
10.150000, 54.616, -38.6405
10.300000, 54.169, -45.7592
10.440000, 53.605, -52.4089
10.600000, 52.743, -59.7275
10.750000, 51.695, -65.8398
10.900000, 50.355, -71.1161
11.060000, 48.389, -74.5635
11.200000, 46.191, -74.2194
11.380000, 43.755, -64.1360
11.500000, 42.999, -46.6828
11.720000, 43.840, -11.1358
11.800000, 44.864, -4.8463
12.060000, 48.814, -0.0358
12.200000, 50.343, -2.2111
12.410000, 51.889, -7.5611
12.500000, 52.351, -10.1147
12.650000, 52.881, -14.5896
12.800000, 53.132, -18.8001
13.150000, 52.746, -26.0152
13.200000, 52.585, -26.4997
13.400000, 51.731, -26.2641
13.600000, 50.873, -21.2243
13.800000, 50.454, -10.4248
14.000000, 51.080, 2.3274
14.300000, 53.549, 13.8319
14.500000, 55.283, 15.0337
14.750000, 57.081, 12.1139
15.000000, 58.338, 6.4911
15.250000, 59.099, -0.4620
15.500000, 59.399, -7.7588
15.750000, 59.264, -14.7918
16.000000, 58.715, -20.8235
16.250000, 57.791, -25.0371
16.500000, 56.606, -26.3039
16.750000, 55.425, -23.4879
17.000000, 54.748, -17.0475
17.250000, 54.845, -10.1336
17.500000, 55.542, -6.3675
17.750000, 56.335, -6.6446
18.000000, 56.913, -9.9126
18.250000, 57.133, -14.8908
18.500000, 56.955, -20.2970
18.750000, 56.377, -24.9593
19.000000, 55.450, -27.5067
19.250000, 54.365, -26.2573
19.500000, 53.610, -20.2434
19.750000, 53.694, -11.4739
20.000000, 54.665, -4.7290
20.299999, 56.221, -2.5618
20.600000, 57.514, -5.1954
20.900000, 58.289, -9.9291
21.200001, 58.549, -14.6215
21.400000, 58.488, -16.8536
21.799999, 58.118, -17.5527
22.000000, 58.024, -15.8871
22.400000, 58.443, -11.0979
22.700001, 59.174, -9.3038
23.000000, 59.878, -10.2089
23.299999, 60.277, -13.0902
23.600000, 60.240, -16.5824
24.000000, 59.516, -19.6104
24.299999, 58.651, -18.8368
24.700001, 57.705, -12.6408
25.000000, 57.568, -6.3928
25.400000, 57.976, -1.1662
25.799999, 58.329, -0.3236
26.200001, 58.290, -1.0995
26.500000, 58.139, -1.3020
26.900000, 58.151, -1.1912
27.200001, 58.445, -2.1706
27.600000, 59.026, -6.5109
28.000000, 59.479, -13.9713
28.500000, 59.642, -24.9094
29.000000, 59.594, -34.5727
29.500000, 59.772, -42.6473
30.000000, 60.066, -51.3249
30.400000, 59.905, -59.0306
30.700001, 59.293, -64.1179
31.100000, 57.678, -66.1549
31.500000, 55.850, -53.0955
32.000000, 56.973, -18.4797
32.500000, 60.165, -10.7700
33.000000, 61.990, -17.2989
33.500000, 62.284, -25.4428
34.000000, 61.443, -29.6514
34.500000, 60.210, -26.2030
35.000000, 59.686, -16.6624
35.500000, 60.108, -9.1134
36.000000, 60.685, -7.0214
36.500000, 60.891, -7.8795
37.000000, 60.733, -8.3896
37.500000, 60.639, -6.5605
38.200001, 61.575, -3.7035
38.700001, 62.689, -6.2637
39.500000, 63.720, -16.4282
40.000000, 63.687, -22.1650
40.599998, 63.357, -25.2174
41.200001, 63.205, -24.7545
41.799999, 63.244, -23.1275
42.500000, 63.395, -20.5511
43.099998, 63.732, -19.2493
43.700001, 63.995, -20.8068
44.400002, 63.655, -24.6521
45.000000, 62.826, -26.2104
45.500000, 62.060, -24.6555
46.200001, 61.532, -17.2277
46.799999, 62.329, -8.2695
47.500000, 64.534, -4.5211
48.200001, 66.475, -10.4296
48.700001, 67.171, -17.0193
49.400002, 67.140, -24.1805
50.000000, 66.601, -24.3855
50.799999, 66.566, -17.2537
51.500000, 67.139, -14.2947
52.200001, 67.067, -14.4016
53.000000, 66.621, -11.0672
53.799999, 66.897, -11.4414
54.500000, 66.569, -18.4072
55.200001, 65.959, -22.4853
56.000000, 67.878, -30.5680
57.000000, 70.539, -67.2970
58.000000, 70.022, -116.2210
59.000000, 68.601, 59.6210
60.000000, 69.712, 0.5439
60.799999, 70.318, -15.0579
61.500000, 70.401, -19.7422
62.200001, 70.450, -18.0789
63.000000, 70.895, -12.4368
64.000000, 71.804, -9.4939
65.000000, 72.121, -10.8894
66.000000, 72.230, -13.0384
67.000000, 72.168, -17.0615
68.000000, 72.006, -19.3181
69.000000, 72.263, -20.1837
70.000000, 72.709, -20.1736
71.000000, 73.360, -20.8760
72.000000, 73.435, -22.9769
73.000000, 73.142, -20.6856
74.000000, 73.252, -19.1578
75.000000, 72.843, -20.5470
76.199997, 72.134, -17.6942
77.500000, 72.249, -14.2886
78.800003, 73.056, -13.4642
80.000000, 73.716, -14.8816
81.199997, 74.240, -14.6649
82.500000, 74.712, -13.6359
83.800003, 75.023, -12.5005
85.000000, 75.160, -11.7207
86.199997, 75.334, -12.1512
87.500000, 75.393, -15.3391
88.500000, 75.134, -17.4799
90.000000, 75.229, -10.9662
91.199997, 76.441, -8.7759
92.500000, 77.167, -12.3959
93.800003, 77.328, -13.9410
95.000000, 77.398, -13.1951
96.199997, 77.503, -12.1558
97.500000, 77.682, -11.6644
98.800003, 77.829, -12.6578
100.000000, 77.886, -13.8126
101.500000, 78.013, -14.6327
103.000000, 78.299, -15.1355
104.400002, 78.620, -15.2844
106.000000, 79.087, -14.7037
107.500000, 79.485, -14.1077
109.000000, 79.796, -12.8917
110.599998, 80.036, -12.1852
112.000000, 80.147, -12.3612
113.800003, 80.363, -14.1732
115.000000, 80.598, -16.1077
117.199997, 81.582, -17.2615
118.000000, 82.156, -17.6702
120.599998, 82.834, -21.7111
122.000000, 82.581, -18.4872
124.099998, 82.652, -13.7311
125.000000, 82.731, -13.1459
126.500000, 82.854, -13.2855
128.000000, 83.018, -13.9109
131.500000, 83.575, -14.7433
132.000000, 83.656, -14.7640
134.000000, 83.968, -15.0129
136.000000, 84.257, -15.8089
138.000000, 84.508, -16.3651
140.000000, 84.856, -15.7654
143.000000, 85.460, -15.1396
145.000000, 85.802, -15.1124
147.500000, 86.206, -15.5155
150.000000, 86.585, -16.0953
152.500000, 86.962, -16.2959
155.000000, 87.361, -16.4565
157.500000, 87.812, -16.9225
160.000000, 88.305, -17.9841
162.500000, 88.703, -18.7975
165.000000, 89.115, -18.3792
167.500000, 89.558, -18.0823
170.000000, 89.930, -18.1874
172.500000, 90.276, -18.4285
175.000000, 90.713, -19.1807
177.500000, 91.187, -20.3201
180.000000, 91.614, -21.3679
182.500000, 91.920, -22.1249
185.000000, 92.216, -22.3931
187.500000, 92.636, -22.8456
190.000000, 93.090, -23.8137
192.500000, 93.505, -24.8542
195.000000, 93.917, -25.9052
197.500000, 94.321, -27.2220
200.000000, 94.699, -28.4515
203.000000, 95.143, -29.9421
206.000000, 95.549, -31.6335
209.000000, 95.940, -33.2811
212.000000, 96.333, -34.8123
214.000000, 96.602, -35.7617
218.000000, 97.185, -37.7575
220.000000, 97.497, -38.9639
224.000000, 98.084, -41.8734
227.000000, 98.461, -44.2018
230.000000, 98.801, -46.4789
233.000000, 99.136, -48.6723
236.000000, 99.487, -50.7841
240.000000, 99.968, -53.7148
243.000000, 100.308, -56.1671
247.000000, 100.753, -59.6813
250.000000, 101.086, -62.4849
254.000000, 101.512, -66.4989
258.000000, 101.903, -70.8418
262.000000, 102.234, -75.4016
265.000000, 102.430, -78.9290
269.000000, 102.639, -83.7814
272.000000, 102.764, -87.5379
276.000000, 102.879, -92.5676
280.000000, 102.927, -97.5542
285.000000, 102.889, -103.5652
290.000000, 102.762, -109.2918
295.000000, 102.565, -114.6788
300.000000, 102.306, -119.5046
304.000000, 102.067, -122.9833
307.000000, 101.876, -125.3583
311.000000, 101.608, -128.2004
315.000000, 101.332, -130.7717
320.000000, 100.993, -133.6028
325.000000, 100.662, -135.9778
330.000000, 100.343, -138.0227
335.000000, 100.041, -139.7796
340.000000, 99.759, -141.3063
345.000000, 99.482, -142.6142
350.000000, 99.219, -143.7131
355.000000, 98.978, -144.6709
360.000000, 98.753, -145.5667
365.000000, 98.533, -146.4011
370.000000, 98.328, -147.1115
375.000000, 98.143, -147.6893
382.000000, 97.904, -148.2913
387.000000, 97.737, -148.7275
395.000000, 97.489, -149.4493
400.000000, 97.348, -149.8015
406.000000, 97.185, -150.1632
412.000000, 97.018, -150.4152
418.000000, 96.860, -150.6887
425.000000, 96.704, -151.0739
431.000000, 96.573, -151.3383
437.000000, 96.449, -151.5977
444.000000, 96.300, -152.0396
450.000000, 96.153, -152.3723
455.000000, 96.021, -152.5441
462.000000, 95.815, -152.6121
468.000000, 95.639, -152.4724
475.000000, 95.450, -151.9691
482.000000, 95.299, -151.0703
487.000000, 95.227, -150.3796
494.000000, 95.171, -149.5983
500.000000, 95.157, -149.1530
508.000000, 95.153, -148.7888
515.000000, 95.154, -148.5757
522.000000, 95.146, -148.4390
530.000000, 95.119, -148.3971
538.000000, 95.094, -148.3279
545.000000, 95.071, -148.2106
552.000000, 95.029, -148.0645
560.000000, 94.978, -147.8774
570.000000, 94.940, -147.7482
580.000000, 94.899, -147.6320
590.000000, 94.862, -147.4382
600.000000, 94.821, -147.2156
608.000000, 94.785, -147.0495
615.000000, 94.754, -146.9044
622.000000, 94.725, -146.7145
630.000000, 94.698, -146.4492
640.000000, 94.663, -146.1858
650.000000, 94.627, -145.9033
660.000000, 94.590, -145.5996
670.000000, 94.547, -145.2310
680.000000, 94.515, -144.8900
690.000000, 94.498, -144.5888
700.000000, 94.486, -144.2098
710.000000, 94.475, -143.8413
720.000000, 94.454, -143.4249
730.000000, 94.434, -143.0168
740.000000, 94.420, -142.6160
750.000000, 94.412, -142.2671
762.000000, 94.409, -141.8975
775.000000, 94.396, -141.3171
788.000000, 94.379, -140.7172
800.000000, 94.383, -140.2355
812.000000, 94.386, -139.8500
825.000000, 94.383, -139.3858
838.000000, 94.381, -138.8647
850.000000, 94.390, -138.4283
862.000000, 94.383, -137.9319
875.000000, 94.378, -137.4114
885.000000, 94.373, -136.9808
900.000000, 94.382, -136.3738
912.000000, 94.394, -135.9110
925.000000, 94.391, -135.3702
938.000000, 94.402, -134.9320
950.000000, 94.420, -134.4679
962.000000, 94.420, -134.0437
975.000000, 94.409, -133.4938
988.000000, 94.409, -132.9431
1000.000000, 94.411, -132.4910
1015.000000, 94.422, -131.8177
1030.000000, 94.427, -131.1300
1044.000000, 94.423, -130.5382
1060.000000, 94.431, -129.7872
1075.000000, 94.446, -129.0739
1090.000000, 94.465, -128.3286
1106.000000, 94.496, -127.4532
1120.000000, 94.526, -126.7380
1138.000000, 94.575, -125.9204
1150.000000, 94.612, -125.3484
1172.000000, 94.670, -124.2625
1180.000000, 94.693, -123.8945
1206.000000, 94.787, -122.5550
1220.000000, 94.843, -121.8278
1241.000000, 94.918, -120.8477
1250.000000, 94.953, -120.4189
1265.000000, 95.021, -119.6286
1280.000000, 95.094, -118.8385
1315.000000, 95.267, -117.2110
1320.000000, 95.292, -116.9825
1340.000000, 95.378, -116.0170
1360.000000, 95.444, -115.0106
1380.000000, 95.526, -114.0621
1400.000000, 95.617, -113.0537
1430.000000, 95.759, -111.6436
1450.000000, 95.860, -110.6306
1475.000000, 95.983, -109.5189
1500.000000, 96.119, -108.3691
1525.000000, 96.242, -107.1738
1550.000000, 96.370, -106.0109
1575.000000, 96.516, -104.9813
1600.000000, 96.633, -103.9141
1625.000000, 96.742, -102.6929
1650.000000, 96.858, -101.5847
1675.000000, 96.964, -100.4689
1700.000000, 97.052, -99.2483
1725.000000, 97.149, -97.8671
1750.000000, 97.245, -96.4419
1775.000000, 97.309, -95.1310
1800.000000, 97.334, -93.6117
1825.000000, 97.335, -91.6121
1850.000000, 97.354, -89.0389
1875.000000, 97.434, -86.0592
1900.000000, 97.560, -82.8019
1925.000000, 97.708, -79.1801
1950.000000, 97.929, -74.9737
1975.000000, 98.285, -70.3361
2000.000000, 98.810, -65.5593
2030.000000, 99.665, -59.9661
2060.000000, 100.735, -55.4005
2090.000000, 101.919, -51.9158
2120.000000, 103.257, -49.4087
2140.000000, 104.194, -48.7167
2180.000000, 106.060, -48.9599
2200.000000, 107.013, -49.8796
2240.000000, 108.916, -53.5223
2270.000000, 110.315, -57.9168
2300.000000, 111.623, -63.9498
2330.000000, 112.795, -71.4796
2360.000000, 113.755, -80.5283
2400.000000, 114.532, -94.1543
2430.000000, 114.733, -104.5193
2470.000000, 114.534, -117.5084
2500.000000, 114.097, -125.9405
2540.000000, 113.302, -135.1013
2580.000000, 112.393, -141.9803
2620.000000, 111.480, -146.9763
2650.000000, 110.822, -149.7438
2690.000000, 110.003, -152.3734
2720.000000, 109.439, -153.7783
2760.000000, 108.753, -154.9692
2800.000000, 108.164, -155.6243
2850.000000, 107.546, -156.2144
2900.000000, 106.972, -156.8135
2950.000000, 106.419, -156.9599
3000.000000, 105.921, -156.6942
3040.000000, 105.564, -156.3295
3070.000000, 105.314, -155.9897
3110.000000, 105.009, -155.4102
3150.000000, 104.735, -154.6876
3200.000000, 104.442, -153.7019
3250.000000, 104.200, -152.7323
3300.000000, 103.988, -151.8369
3350.000000, 103.797, -150.9647
3400.000000, 103.630, -150.0219
3450.000000, 103.495, -149.0538
3500.000000, 103.396, -148.0728
3550.000000, 103.327, -147.1586
3600.000000, 103.287, -146.3551
3650.000000, 103.270, -145.6609
3700.000000, 103.256, -145.0320
3750.000000, 103.257, -144.3494
3820.000000, 103.325, -143.5213
3870.000000, 103.406, -143.1523
3950.000000, 103.606, -142.9840
4000.000000, 103.753, -143.3273
4060.000000, 103.941, -144.2133
4120.000000, 104.124, -145.6293
4180.000000, 104.297, -147.5693
4250.000000, 104.482, -150.6494
4310.000000, 104.590, -154.1951
4370.000000, 104.581, -158.5930
4440.000000, 104.382, -164.4085
4500.000000, 104.028, -169.9485
4550.000000, 103.576, -174.7373
4620.000000, 102.663, 178.6483
4680.000000, 101.607, 173.6129
4750.000000, 100.084, 169.0752
4820.000000, 98.307, 166.5020
4870.000000, 96.909, 166.0634
4940.000000, 94.800, 167.8823
5000.000000, 92.889, 172.2672
5080.000000, 90.360, -176.1279
5150.000000, 88.604, -158.8597
5220.000000, 88.016, -136.8051
5300.000000, 88.978, -115.0193
5380.000000, 90.781, -101.8695
5450.000000, 92.428, -96.2490
5520.000000, 93.914, -94.3541
5600.000000, 95.327, -95.3046
5700.000000, 96.607, -99.6473
5800.000000, 97.313, -105.9678
5900.000000, 97.433, -112.6204
6000.000000, 97.102, -118.2145
6080.000000, 96.620, -121.4210
6150.000000, 96.106, -123.2738
6220.000000, 95.545, -124.3336
6300.000000, 94.889, -124.5682
6400.000000, 94.089, -123.7273
6500.000000, 93.348, -121.8992
6600.000000, 92.681, -119.4121
6700.000000, 92.084, -116.4967
6800.000000, 91.554, -113.2304
6900.000000, 91.104, -109.7305
7000.000000, 90.731, -106.0466
7100.000000, 90.425, -102.1305
7200.000000, 90.209, -98.1624
7300.000000, 90.061, -94.4813
7400.000000, 89.936, -91.1058
7500.000000, 89.835, -87.8441
7620.000000, 89.763, -84.2529
7750.000000, 89.722, -80.8408
7880.000000, 89.581, -78.0182
8000.000000, 89.316, -75.7690
8120.000000, 88.911, -73.1927
8250.000000, 88.394, -69.1242
8380.000000, 88.006, -63.6899
8500.000000, 87.816, -58.9012
8620.000000, 87.637, -54.5322
8750.000000, 87.448, -49.4150
8850.000000, 87.396, -45.2214
9000.000000, 87.498, -39.8002
9120.000000, 87.628, -36.7888
9250.000000, 87.699, -34.8784
9380.000000, 87.580, -34.2074
9500.000000, 87.157, -34.0139
9620.000000, 86.395, -32.7938
9750.000000, 85.248, -28.4946
9880.000000, 84.094, -18.7609
10000.000000, 83.586, -5.2474
10150.000000, 84.160, 12.3917
10300.000000, 85.731, 24.7747
10440.000000, 87.435, 29.9415
10600.000000, 89.046, 29.3964
10750.000000, 89.872, 25.3097
10900.000000, 89.916, 21.0021
11060.000000, 89.387, 20.2029
11200.000000, 88.971, 23.4515
11380.000000, 88.986, 29.9754
11500.000000, 89.322, 34.0413
11720.000000, 90.520, 39.2015
11800.000000, 91.079, 39.5718
12060.000000, 92.679, 34.2640
12200.000000, 93.174, 28.4611
12410.000000, 93.305, 18.0086
12500.000000, 93.174, 13.3496
12650.000000, 92.799, 5.3683
12800.000000, 92.246, -3.5538
13150.000000, 89.206, -28.6399
13200.000000, 88.456, -31.6975
13400.000000, 84.952, -40.5013
13600.000000, 81.317, -48.3571
13800.000000, 77.730, -64.7305
14000.000000, 74.966, -107.8078
14300.000000, 76.278, 175.3167
14500.000000, 78.212, 156.4630
14750.000000, 79.682, 145.3608
15000.000000, 80.576, 142.1342
15250.000000, 81.650, 142.6279
15500.000000, 83.000, 140.9495
15750.000000, 83.845, 134.8829
16000.000000, 83.733, 128.2018
16250.000000, 82.914, 124.5003
16500.000000, 81.751, 124.6799
16750.000000, 80.472, 128.9992
17000.000000, 79.307, 137.4080
17250.000000, 78.502, 149.3611
17500.000000, 78.321, 164.3616
17750.000000, 79.046, 179.9385
18000.000000, 80.528, -167.8048
18250.000000, 82.448, -160.1191
18500.000000, 84.577, -157.6547
18750.000000, 86.563, -161.2811
19000.000000, 87.953, -170.5587
19250.000000, 88.425, 176.6587
19500.000000, 87.930, 163.0022
19750.000000, 86.643, 150.0697
20000.000000, 84.688, 138.0869
20300.000000, 81.463, 124.7978
20600.000000, 77.293, 113.6779
20900.000000, 72.283, 106.0234
21200.000000, 66.644, 101.3652
21400.000000, 62.600, 99.3807
21800.000000, 53.875, 99.2424
22000.000000, 49.482, 103.9611
22400.000000, 42.682, 124.3450
22700.000000, 40.189, 143.5712
23000.000000, 39.516, -163.2520
23300.000000, 39.346, -24.3225
23600.000000, 39.007, 3.4919
24000.000000, 38.446, 172.8207
