* Measurement data measured by REW V5.31
* Source: Headset (DS by VECLAN.COM), MICROPHONE (Master Volume), L, volume: 1.000. Timing signal peak level -7.5 dBFS, measurement signal peak level -6.0 dBFS
* Format: 2M Log Swept Sine, 1 sweep at -7.1 dBFS using an acoustic timing reference
* Dated: Apr 14, 2024 6:07:38 PM
* REW Settings:
*  C-weighting compensation: Off
*  Target level: 85.0 dB
* Note: ; Delay -0.0745 ms (-26 mm, -1.01 in) using estimated IR delay relative to Acoustic reference played from HEADPHONE L with no timing offset
* Measurement: Pink headset L1
* Smoothing: 1/24 octave
* Frequency Step: 1/48 octave
* Start Frequency: 1.000 Hz
*
* Freq(Hz), SPL(dB), Phase(degrees)
1.000000, 69.641, 16.0475
1.015000, 69.617, 16.3043
1.030000, 69.594, 16.5647
1.044000, 69.572, 16.8113
1.060000, 69.547, 17.0979
1.075000, 69.524, 17.3718
1.090000, 69.502, 17.6513
1.106000, 69.479, 17.9566
1.120000, 69.462, 18.2310
1.138000, 69.444, 18.5937
1.150000, 69.434, 18.8413
1.172000, 69.421, 19.2995
1.180000, 69.417, 19.4625
1.206000, 69.406, 20.0027
1.220000, 69.401, 20.2987
1.241000, 69.394, 20.7479
1.250000, 69.390, 20.9420
1.265000, 69.384, 21.2668
1.280000, 69.375, 21.5928
1.315000, 69.348, 22.3539
1.320000, 69.343, 22.4623
1.340000, 69.318, 22.8938
1.360000, 69.287, 23.3223
1.380000, 69.247, 23.7067
1.400000, 69.197, 24.0688
1.430000, 69.102, 24.5939
1.450000, 69.024, 24.9297
1.475000, 68.905, 25.3362
1.500000, 68.762, 25.7400
1.525000, 68.595, 26.1459
1.550000, 68.407, 26.5525
1.575000, 68.203, 26.9357
1.600000, 67.986, 27.2760
1.625000, 67.760, 27.6100
1.650000, 67.527, 27.9352
1.675000, 67.293, 28.2492
1.700000, 67.059, 28.5497
1.725000, 66.831, 28.8345
1.750000, 66.611, 29.1016
1.775000, 66.404, 29.3317
1.800000, 66.212, 29.5071
1.825000, 66.038, 29.6612
1.850000, 65.881, 29.7993
1.875000, 65.734, 29.9303
1.900000, 65.595, 30.0562
1.925000, 65.463, 30.1755
1.950000, 65.338, 30.2866
1.975000, 65.220, 30.3704
2.000000, 65.107, 30.4088
2.030000, 64.979, 30.4365
2.060000, 64.859, 30.4387
2.090000, 64.745, 30.4118
2.120000, 64.636, 30.3523
2.140000, 64.567, 30.2928
2.180000, 64.435, 30.1016
2.200000, 64.372, 29.9613
2.240000, 64.254, 29.6441
2.270000, 64.175, 29.3821
2.300000, 64.103, 29.1016
2.330000, 64.037, 28.8030
2.360000, 63.977, 28.4858
2.400000, 63.906, 27.9858
2.430000, 63.858, 27.5817
2.470000, 63.800, 27.0118
2.500000, 63.760, 26.5597
2.540000, 63.712, 25.9217
2.580000, 63.668, 25.2234
2.620000, 63.633, 24.4491
2.650000, 63.611, 23.8487
2.690000, 63.589, 23.0276
2.720000, 63.577, 22.4000
2.760000, 63.567, 21.5537
2.800000, 63.560, 20.6590
2.850000, 63.557, 19.5272
2.900000, 63.558, 18.3899
2.950000, 63.561, 17.2408
3.000000, 63.570, 16.0346
3.040000, 63.581, 15.0437
3.070000, 63.592, 14.2980
3.110000, 63.610, 13.3070
3.150000, 63.629, 12.3262
3.200000, 63.656, 11.0930
3.250000, 63.683, 9.8793
3.300000, 63.711, 8.6989
3.350000, 63.741, 7.5323
3.400000, 63.772, 6.3345
3.450000, 63.806, 5.1365
3.500000, 63.841, 3.9679
3.550000, 63.877, 2.8434
3.600000, 63.912, 1.7481
3.650000, 63.947, 0.7030
3.700000, 63.980, -0.2928
3.750000, 64.013, -1.2597
3.820000, 64.059, -2.5996
3.870000, 64.092, -3.5168
3.950000, 64.145, -4.8740
4.000000, 64.179, -5.6618
4.060000, 64.221, -6.5350
4.120000, 64.262, -7.3367
4.180000, 64.304, -8.0842
4.250000, 64.355, -8.9109
4.310000, 64.401, -9.5459
4.370000, 64.452, -10.1124
4.440000, 64.516, -10.7100
4.500000, 64.574, -11.1445
4.550000, 64.624, -11.4596
4.620000, 64.700, -11.8723
4.680000, 64.771, -12.1920
4.750000, 64.862, -12.5244
4.820000, 64.964, -12.8251
4.870000, 65.041, -13.0053
4.940000, 65.157, -13.2186
5.000000, 65.262, -13.4018
5.080000, 65.410, -13.6688
5.150000, 65.546, -13.9199
5.220000, 65.690, -14.1895
5.300000, 65.863, -14.4996
5.380000, 66.041, -14.8345
5.450000, 66.198, -15.1887
5.520000, 66.355, -15.5881
5.600000, 66.538, -16.0953
5.700000, 66.767, -16.7927
5.800000, 66.992, -17.5564
5.900000, 67.205, -18.4142
6.000000, 67.410, -19.3522
6.080000, 67.566, -20.1503
6.150000, 67.696, -20.8548
6.220000, 67.819, -21.5792
6.300000, 67.950, -22.4257
6.400000, 68.100, -23.5158
6.500000, 68.235, -24.6103
6.600000, 68.357, -25.6628
6.700000, 68.463, -26.6965
6.800000, 68.556, -27.7059
6.900000, 68.639, -28.6649
7.000000, 68.715, -29.5403
7.100000, 68.781, -30.3538
7.200000, 68.842, -31.1033
7.300000, 68.901, -31.7838
7.400000, 68.961, -32.3799
7.500000, 69.021, -32.9102
7.620000, 69.097, -33.4704
7.750000, 69.191, -33.9991
7.880000, 69.296, -34.4550
8.000000, 69.402, -34.8400
8.120000, 69.519, -35.2276
8.250000, 69.657, -35.6455
8.380000, 69.803, -36.0786
8.500000, 69.940, -36.5175
8.620000, 70.080, -36.9828
8.750000, 70.232, -37.5060
8.850000, 70.345, -37.9216
9.000000, 70.511, -38.5548
9.120000, 70.638, -39.0486
9.250000, 70.771, -39.5548
9.380000, 70.899, -40.0242
9.500000, 71.016, -40.4128
9.620000, 71.133, -40.7404
9.750000, 71.260, -41.0366
9.880000, 71.386, -41.2843
10.000000, 71.499, -41.4616
10.150000, 71.640, -41.6728
10.300000, 71.786, -41.8650
10.440000, 71.929, -42.0392
10.600000, 72.099, -42.2645
10.750000, 72.264, -42.5280
10.900000, 72.432, -42.8377
11.060000, 72.606, -43.2481
11.200000, 72.751, -43.6829
11.380000, 72.921, -44.2441
11.500000, 73.021, -44.6058
11.720000, 73.180, -45.1789
11.800000, 73.232, -45.3406
12.060000, 73.387, -45.6872
12.200000, 73.471, -45.7620
12.410000, 73.604, -45.6868
12.500000, 73.667, -45.5953
12.650000, 73.781, -45.3779
12.800000, 73.909, -45.1207
13.150000, 74.264, -44.6050
13.200000, 74.319, -44.5634
13.400000, 74.550, -44.4771
13.600000, 74.780, -44.5280
13.800000, 74.999, -44.7080
14.000000, 75.200, -44.9737
14.300000, 75.460, -45.4967
14.500000, 75.606, -45.7962
14.750000, 75.769, -46.0512
15.000000, 75.927, -46.1622
15.250000, 76.097, -46.2189
15.500000, 76.278, -46.2413
15.750000, 76.467, -46.2943
16.000000, 76.655, -46.4240
16.250000, 76.830, -46.6658
16.500000, 76.987, -46.9280
16.750000, 77.124, -47.1391
17.000000, 77.249, -47.2395
17.250000, 77.374, -47.2304
17.500000, 77.511, -47.1008
17.750000, 77.668, -46.9111
18.000000, 77.845, -46.7442
18.250000, 78.039, -46.6913
18.500000, 78.235, -46.7660
18.750000, 78.424, -46.9511
19.000000, 78.598, -47.2000
19.250000, 78.754, -47.4677
19.500000, 78.897, -47.6714
19.750000, 79.035, -47.7793
20.000000, 79.178, -47.7968
20.299999, 79.366, -47.7886
20.600000, 79.572, -47.8077
20.900000, 79.787, -47.9329
21.200001, 79.995, -48.2048
21.400000, 80.123, -48.4428
21.799999, 80.344, -48.9281
22.000000, 80.439, -49.1232
22.400000, 80.613, -49.3565
22.700001, 80.746, -49.3557
23.000000, 80.894, -49.2522
23.299999, 81.060, -49.1396
23.600000, 81.244, -49.0729
24.000000, 81.500, -49.1339
24.299999, 81.689, -49.3182
24.700001, 81.920, -49.6662
25.000000, 82.075, -49.9354
25.400000, 82.261, -50.2290
25.799999, 82.440, -50.3609
26.200001, 82.631, -50.3613
26.500000, 82.788, -50.3364
26.900000, 83.016, -50.3534
27.200001, 83.192, -50.4466
27.600000, 83.419, -50.6573
28.000000, 83.632, -50.8839
28.500000, 83.891, -51.1023
29.000000, 84.167, -51.2793
29.500000, 84.458, -51.6187
30.000000, 84.732, -52.1968
30.400000, 84.916, -52.7534
30.700001, 85.032, -53.1350
31.100000, 85.169, -53.5263
31.500000, 85.301, -53.7775
32.000000, 85.473, -53.9472
32.500000, 85.652, -54.0659
33.000000, 85.832, -54.1406
33.500000, 86.015, -54.1654
34.000000, 86.210, -54.1550
34.500000, 86.418, -54.1807
35.000000, 86.630, -54.2671
35.500000, 86.839, -54.4067
36.000000, 87.047, -54.5774
36.500000, 87.253, -54.7889
37.000000, 87.453, -55.0385
37.500000, 87.645, -55.3078
38.200001, 87.902, -55.6410
38.700001, 88.087, -55.8413
39.500000, 88.391, -56.1790
40.000000, 88.582, -56.4527
40.599998, 88.800, -56.8389
41.200001, 89.002, -57.1871
41.799999, 89.203, -57.4528
42.500000, 89.449, -57.7638
43.099998, 89.655, -58.0945
43.700001, 89.845, -58.3942
44.400002, 90.065, -58.5983
45.000000, 90.268, -58.7350
45.500000, 90.441, -58.8836
46.200001, 90.680, -59.0985
46.799999, 90.895, -59.2934
47.500000, 91.150, -59.6715
48.200001, 91.376, -60.1485
48.700001, 91.525, -60.3976
49.400002, 91.752, -60.6277
50.000000, 91.968, -60.9330
50.799999, 92.229, -61.5711
51.500000, 92.422, -62.0252
52.200001, 92.627, -62.2772
53.000000, 92.890, -62.5875
53.799999, 93.152, -63.0244
54.500000, 93.374, -63.4097
55.200001, 93.600, -63.8036
56.000000, 93.856, -64.3258
57.000000, 94.160, -65.0302
58.000000, 94.453, -65.6921
59.000000, 94.748, -66.3376
60.000000, 95.049, -67.0048
60.799999, 95.292, -67.6117
61.500000, 95.496, -68.1910
62.200001, 95.693, -68.7579
63.000000, 95.919, -69.3886
64.000000, 96.198, -70.2061
65.000000, 96.472, -71.0283
66.000000, 96.746, -71.8625
67.000000, 97.013, -72.7470
68.000000, 97.269, -73.6284
69.000000, 97.521, -74.4962
70.000000, 97.765, -75.3737
71.000000, 98.000, -76.2152
72.000000, 98.236, -77.0204
73.000000, 98.474, -77.8134
74.000000, 98.716, -78.6295
75.000000, 98.958, -79.5130
76.199997, 99.244, -80.6180
77.500000, 99.557, -81.8507
78.800003, 99.870, -83.1494
80.000000, 100.158, -84.4071
81.199997, 100.441, -85.6548
82.500000, 100.754, -87.0075
83.800003, 101.074, -88.4367
85.000000, 101.373, -89.8693
86.199997, 101.669, -91.4349
87.500000, 101.983, -93.2909
88.500000, 102.215, -94.8076
90.000000, 102.546, -97.2112
91.199997, 102.793, -99.2207
92.500000, 103.040, -101.4687
93.800003, 103.261, -103.7505
95.000000, 103.447, -105.8645
96.199997, 103.615, -107.9957
97.500000, 103.781, -110.2997
98.800003, 103.931, -112.5962
100.000000, 104.059, -114.6997
101.500000, 104.202, -117.3227
103.000000, 104.322, -119.8982
104.400002, 104.420, -122.2603
106.000000, 104.515, -124.9041
107.500000, 104.593, -127.3106
109.000000, 104.668, -129.6674
110.599998, 104.745, -132.1670
112.000000, 104.811, -134.3564
113.800003, 104.889, -137.2352
115.000000, 104.931, -139.1992
117.199997, 104.980, -142.7883
118.000000, 104.991, -144.0768
120.599998, 105.001, -148.2324
122.000000, 104.985, -150.4620
124.099998, 104.948, -153.8008
125.000000, 104.923, -155.2469
126.500000, 104.871, -157.5970
128.000000, 104.809, -159.8691
131.500000, 104.616, -164.7964
132.000000, 104.583, -165.4617
134.000000, 104.440, -168.0450
136.000000, 104.284, -170.5493
138.000000, 104.113, -172.8796
140.000000, 103.937, -175.0004
143.000000, 103.661, -177.8917
145.000000, 103.468, -179.6319
147.500000, 103.229, 178.3563
150.000000, 102.988, 176.5041
152.500000, 102.748, 174.8704
155.000000, 102.511, 173.3785
157.500000, 102.273, 172.0066
160.000000, 102.038, 170.7267
162.500000, 101.803, 169.5697
165.000000, 101.572, 168.5730
167.500000, 101.346, 167.6607
170.000000, 101.123, 166.8447
172.500000, 100.908, 166.0937
175.000000, 100.698, 165.4144
177.500000, 100.492, 164.8190
180.000000, 100.292, 164.2916
182.500000, 100.099, 163.7803
185.000000, 99.915, 163.3265
187.500000, 99.737, 162.9309
190.000000, 99.563, 162.5838
192.500000, 99.394, 162.2728
195.000000, 99.232, 161.9879
197.500000, 99.074, 161.7188
200.000000, 98.918, 161.4604
203.000000, 98.733, 161.1841
206.000000, 98.556, 160.9496
209.000000, 98.384, 160.7552
212.000000, 98.216, 160.5879
214.000000, 98.104, 160.4897
218.000000, 97.886, 160.2996
220.000000, 97.779, 160.2202
224.000000, 97.565, 160.0719
227.000000, 97.399, 159.9594
230.000000, 97.223, 159.9409
233.000000, 97.059, 160.1025
236.000000, 96.918, 160.3150
240.000000, 96.737, 160.4774
243.000000, 96.601, 160.5482
247.000000, 96.421, 160.7100
250.000000, 96.287, 160.9009
254.000000, 96.109, 161.1539
258.000000, 95.927, 161.4554
262.000000, 95.744, 161.8432
265.000000, 95.608, 162.1885
269.000000, 95.428, 162.7577
272.000000, 95.297, 163.2930
276.000000, 95.136, 164.1605
280.000000, 95.005, 165.1742
285.000000, 94.889, 166.4915
290.000000, 94.816, 167.7957
295.000000, 94.799, 169.3099
300.000000, 94.911, 170.8183
304.000000, 95.089, 171.3265
307.000000, 95.221, 171.0905
311.000000, 95.325, 170.1654
315.000000, 95.325, 169.0323
320.000000, 95.218, 167.8373
325.000000, 95.053, 167.1316
330.000000, 94.875, 166.8245
335.000000, 94.706, 166.7336
340.000000, 94.545, 166.8003
345.000000, 94.391, 166.9729
350.000000, 94.241, 167.2408
355.000000, 94.099, 167.5456
360.000000, 93.970, 167.8982
365.000000, 93.853, 168.2939
370.000000, 93.747, 168.6730
375.000000, 93.645, 169.0194
382.000000, 93.497, 169.4216
387.000000, 93.380, 169.6273
395.000000, 93.188, 170.0445
400.000000, 93.067, 170.3870
406.000000, 92.919, 170.8246
412.000000, 92.769, 171.3124
418.000000, 92.628, 171.8637
425.000000, 92.467, 172.4807
431.000000, 92.324, 173.0443
437.000000, 92.185, 173.6430
444.000000, 92.031, 174.3750
450.000000, 91.899, 174.9877
455.000000, 91.786, 175.5064
462.000000, 91.627, 176.2524
468.000000, 91.496, 176.9279
475.000000, 91.343, 177.7037
482.000000, 91.188, 178.4821
487.000000, 91.072, 179.0633
494.000000, 90.910, 179.9435
500.000000, 90.773, -179.2858
508.000000, 90.590, -178.2360
515.000000, 90.426, -177.2675
522.000000, 90.265, -176.2377
530.000000, 90.081, -175.0698
538.000000, 89.888, -173.8131
545.000000, 89.718, -172.6212
552.000000, 89.558, -171.3289
560.000000, 89.393, -169.9683
570.000000, 89.148, -168.4224
580.000000, 88.868, -166.4157
590.000000, 88.625, -164.1833
600.000000, 88.361, -162.1023
608.000000, 88.122, -160.3388
615.000000, 87.890, -158.5598
622.000000, 87.662, -156.4437
630.000000, 87.434, -153.8302
640.000000, 87.167, -150.5555
650.000000, 86.884, -147.0977
660.000000, 86.571, -143.3776
670.000000, 86.250, -138.7765
680.000000, 86.001, -133.4384
690.000000, 85.818, -127.5414
700.000000, 85.734, -120.9602
710.000000, 85.794, -113.8259
720.000000, 86.044, -106.4350
730.000000, 86.459, -99.3392
740.000000, 86.996, -92.4520
750.000000, 87.694, -85.8812
762.000000, 88.772, -79.1758
775.000000, 90.046, -73.9544
788.000000, 91.320, -70.5614
800.000000, 92.460, -68.3609
812.000000, 93.612, -67.0387
825.000000, 94.814, -66.9929
838.000000, 95.860, -68.0932
850.000000, 96.747, -69.1444
862.000000, 97.605, -70.7031
875.000000, 98.439, -72.9062
885.000000, 99.036, -74.8674
900.000000, 99.813, -78.4669
912.000000, 100.319, -81.5071
925.000000, 100.774, -84.7749
938.000000, 101.157, -88.0108
950.000000, 101.441, -90.9747
962.000000, 101.661, -93.8627
975.000000, 101.835, -96.8109
988.000000, 101.949, -99.5524
1000.000000, 102.014, -101.8701
1015.000000, 102.039, -104.4739
1030.000000, 102.022, -106.5815
1044.000000, 102.003, -108.1713
1060.000000, 101.989, -109.6569
1075.000000, 101.984, -110.8650
1090.000000, 101.989, -111.9746
1106.000000, 101.993, -113.1024
1120.000000, 101.989, -113.9400
1138.000000, 101.984, -114.8007
1150.000000, 101.980, -115.2932
1172.000000, 101.977, -115.9295
1180.000000, 101.982, -116.1291
1206.000000, 102.004, -116.6717
1220.000000, 102.018, -116.8381
1241.000000, 102.056, -116.9200
1250.000000, 102.083, -116.9031
1265.000000, 102.142, -116.9079
1280.000000, 102.207, -117.0156
1315.000000, 102.296, -117.1902
1320.000000, 102.309, -117.1426
1340.000000, 102.378, -116.8957
1360.000000, 102.449, -116.7076
1380.000000, 102.516, -116.5255
1400.000000, 102.611, -116.2762
1430.000000, 102.781, -115.8545
1450.000000, 102.917, -115.6835
1475.000000, 103.078, -115.4786
1500.000000, 103.259, -115.2542
1525.000000, 103.444, -115.2117
1550.000000, 103.603, -115.2885
1575.000000, 103.726, -115.1429
1600.000000, 103.902, -114.5932
1625.000000, 104.126, -114.3929
1650.000000, 104.341, -114.2199
1675.000000, 104.581, -114.0649
1700.000000, 104.853, -113.9975
1725.000000, 105.154, -114.2271
1750.000000, 105.445, -114.8789
1775.000000, 105.689, -115.6201
1800.000000, 105.941, -116.2901
1825.000000, 106.186, -117.1474
1850.000000, 106.429, -117.9586
1875.000000, 106.704, -118.8545
1900.000000, 106.997, -120.1630
1925.000000, 107.253, -121.8731
1950.000000, 107.470, -123.7391
1975.000000, 107.648, -125.7843
2000.000000, 107.781, -127.9249
2030.000000, 107.871, -130.4887
2060.000000, 107.918, -132.6960
2090.000000, 107.981, -134.8510
2120.000000, 108.006, -137.1847
2140.000000, 108.007, -138.6855
2180.000000, 107.982, -141.8213
2200.000000, 107.912, -143.4151
2240.000000, 107.742, -145.8243
2270.000000, 107.667, -147.5930
2300.000000, 107.544, -149.7643
2330.000000, 107.339, -151.6212
2360.000000, 107.127, -153.0676
2400.000000, 106.858, -154.7226
2430.000000, 106.667, -155.8976
2470.000000, 106.389, -157.6296
2500.000000, 106.113, -158.8075
2540.000000, 105.685, -159.8372
2580.000000, 105.188, -159.9306
2620.000000, 104.742, -158.1758
2650.000000, 104.622, -155.8954
2690.000000, 104.764, -153.9983
2720.000000, 104.826, -153.8617
2760.000000, 104.827, -152.3195
2800.000000, 105.412, -149.6745
2850.000000, 106.574, -153.5080
2900.000000, 106.914, -161.5567
2950.000000, 106.616, -167.8948
3000.000000, 106.198, -172.1099
3040.000000, 105.951, -174.7957
3070.000000, 105.824, -176.7637
3110.000000, 105.736, -179.5522
3150.000000, 105.763, 177.1534
3200.000000, 105.941, 170.9886
3250.000000, 106.028, 160.9164
3300.000000, 105.477, 146.8462
3350.000000, 104.172, 134.5163
3400.000000, 103.034, 126.0450
3450.000000, 102.298, 116.1166
3500.000000, 101.471, 104.0468
3550.000000, 100.594, 91.3435
3600.000000, 99.952, 77.5530
3650.000000, 99.621, 61.4317
3700.000000, 99.341, 43.1940
3750.000000, 98.891, 24.8497
3820.000000, 97.961, 3.5930
3870.000000, 97.320, -6.7148
3950.000000, 96.729, -16.0010
4000.000000, 96.534, -18.4515
4060.000000, 96.552, -16.9035
4120.000000, 97.371, -12.1049
4180.000000, 99.007, -8.9962
4250.000000, 101.369, -11.4854
4310.000000, 103.141, -20.0284
4370.000000, 103.921, -32.4052
4440.000000, 103.434, -41.6536
4500.000000, 103.318, -43.7308
4550.000000, 103.413, -47.5247
4620.000000, 102.876, -51.1864
4680.000000, 102.722, -49.1118
4750.000000, 103.143, -50.2205
4820.000000, 102.987, -53.5688
4870.000000, 102.717, -53.8990
4940.000000, 102.571, -52.4122
5000.000000, 102.699, -50.5905
5080.000000, 103.395, -49.2412
5150.000000, 104.121, -53.4661
5220.000000, 104.073, -60.6359
5300.000000, 103.155, -63.6304
5380.000000, 102.689, -60.4457
5450.000000, 102.733, -60.9425
5520.000000, 102.182, -63.5512
5600.000000, 100.903, -60.7086
5700.000000, 100.076, -46.8796
5800.000000, 101.268, -31.3202
5900.000000, 103.547, -27.5815
6000.000000, 104.803, -33.7302
6080.000000, 105.020, -37.6301
6150.000000, 105.205, -38.7120
6220.000000, 105.595, -39.9430
6300.000000, 105.976, -43.2637
6400.000000, 105.974, -48.0708
6500.000000, 105.636, -50.7517
6600.000000, 105.323, -51.3976
6700.000000, 105.099, -51.2321
6800.000000, 104.976, -50.1976
6900.000000, 105.063, -49.0848
7000.000000, 105.251, -48.6993
7100.000000, 105.467, -48.6823
7200.000000, 105.745, -49.3423
7300.000000, 105.982, -51.1765
7400.000000, 106.040, -53.9795
7500.000000, 105.808, -56.8074
7620.000000, 105.252, -57.8656
7750.000000, 104.893, -55.6633
7880.000000, 105.000, -53.5487
8000.000000, 105.212, -54.4722
8120.000000, 105.113, -57.2294
8250.000000, 104.572, -59.7367
8380.000000, 103.777, -59.0724
8500.000000, 103.351, -55.6370
8620.000000, 103.344, -52.7617
8750.000000, 103.561, -51.0880
8850.000000, 103.873, -51.3162
9000.000000, 104.223, -54.9849
9120.000000, 104.294, -59.6707
9250.000000, 104.088, -66.5153
9380.000000, 103.419, -74.3549
9500.000000, 102.312, -81.5387
9620.000000, 100.668, -86.8705
9750.000000, 98.465, -88.5536
9880.000000, 96.184, -85.3000
10000.000000, 94.339, -78.6841
10150.000000, 92.594, -68.5132
10300.000000, 91.343, -58.4307
10440.000000, 90.323, -49.5370
10600.000000, 89.255, -36.4173
10750.000000, 88.941, -22.3940
10900.000000, 89.101, -11.7137
11060.000000, 89.357, -2.1589
11200.000000, 89.700, 5.3094
11380.000000, 90.144, 13.5201
11500.000000, 90.535, 19.8253
11720.000000, 92.342, 31.0835
11800.000000, 93.313, 32.5704
12060.000000, 95.906, 23.3955
12200.000000, 96.330, 13.0382
12410.000000, 95.463, -3.4275
12500.000000, 94.558, -9.4431
12650.000000, 92.474, -16.2185
12800.000000, 89.950, -18.2602
13150.000000, 83.602, -8.4383
13200.000000, 82.610, -4.6575
13400.000000, 79.486, 41.5051
13600.000000, 81.312, 89.1381
13800.000000, 83.576, 95.6502
14000.000000, 84.993, 101.0941
14300.000000, 87.664, 105.7832
14500.000000, 88.842, 99.5852
14750.000000, 88.587, 88.6144
15000.000000, 86.930, 80.1394
15250.000000, 83.816, 78.1805
15500.000000, 79.948, 98.9294
15750.000000, 79.645, 141.2053
16000.000000, 81.990, 157.1384
16250.000000, 83.677, 160.6432
16500.000000, 84.740, 161.6089
16750.000000, 85.479, 161.3596
17000.000000, 85.904, 159.3218
17250.000000, 85.771, 156.2106
17500.000000, 85.020, 155.1715
17750.000000, 84.099, 158.7982
18000.000000, 83.532, 165.3276
18250.000000, 83.281, 172.2167
18500.000000, 83.414, -179.5109
18750.000000, 84.274, -172.4523
19000.000000, 85.135, -169.8673
19250.000000, 85.346, -168.4642
19500.000000, 84.975, -165.3218
19750.000000, 84.248, -161.0903
20000.000000, 83.140, -156.7023
20300.000000, 81.274, -150.1214
20600.000000, 79.229, -140.5892
20900.000000, 77.381, -130.6903
21200.000000, 75.526, -123.5040
21400.000000, 74.106, -120.6454
21800.000000, 70.315, -119.4274
22000.000000, 67.552, -120.1643
22400.000000, 59.496, -120.6265
22700.000000, 51.658, -117.6511
23000.000000, 43.112, -113.4461
23300.000000, 35.644, -57.8463
23600.000000, 32.402, -45.5834
24000.000000, 31.824, -107.3294
