* Measurement data measured by REW V5.31
* Source: Headset (DS by VECLAN.COM), MICROPHONE (Master Volume), L, volume: 1.000. Timing signal peak level -7.6 dBFS, measurement signal peak level -6.0 dBFS
* Format: 2M Log Swept Sine, 1 sweep at -7.1 dBFS using an acoustic timing reference
* Dated: Apr 14, 2024 6:09:02 PM
* REW Settings:
*  C-weighting compensation: Off
*  Target level: 85.0 dB
* Note: ; Delay -0.0458 ms (-16 mm, -0.62 in) using estimated IR delay relative to Acoustic reference played from HEADPHONE L with no timing offset Clock adjustment: -2.8 ppm
* Measurement: Pink headset L3
* Smoothing: 1/24 octave
* Frequency Step: 1/48 octave
* Start Frequency: 1.000 Hz
*
* Freq(Hz), SPL(dB), Phase(degrees)
1.000000, 70.746, 22.6966
1.015000, 70.732, 23.0244
1.030000, 70.718, 23.3540
1.044000, 70.705, 23.6633
1.060000, 70.689, 24.0192
1.075000, 70.675, 24.3554
1.090000, 70.660, 24.6945
1.106000, 70.646, 25.0598
1.120000, 70.635, 25.3828
1.138000, 70.626, 25.8028
1.150000, 70.622, 26.0855
1.172000, 70.618, 26.6020
1.180000, 70.617, 26.7846
1.206000, 70.618, 27.3826
1.220000, 70.619, 27.7068
1.241000, 70.620, 28.1950
1.250000, 70.619, 28.4048
1.265000, 70.618, 28.7547
1.280000, 70.616, 29.1049
1.315000, 70.600, 29.9206
1.320000, 70.596, 30.0368
1.340000, 70.577, 30.5001
1.360000, 70.551, 30.9617
1.380000, 70.515, 31.3816
1.400000, 70.469, 31.7824
1.430000, 70.379, 32.3734
1.450000, 70.303, 32.7595
1.475000, 70.186, 33.2352
1.500000, 70.043, 33.7108
1.525000, 69.875, 34.1888
1.550000, 69.685, 34.6679
1.575000, 69.479, 35.1245
1.600000, 69.258, 35.5393
1.625000, 69.026, 35.9494
1.650000, 68.788, 36.3527
1.675000, 68.548, 36.7473
1.700000, 68.308, 37.1312
1.725000, 68.072, 37.5027
1.750000, 67.845, 37.8601
1.775000, 67.630, 38.1847
1.800000, 67.430, 38.4589
1.825000, 67.249, 38.7166
1.850000, 67.083, 38.9629
1.875000, 66.927, 39.2060
1.900000, 66.778, 39.4473
1.925000, 66.635, 39.6845
1.950000, 66.499, 39.9154
1.975000, 66.369, 40.1204
2.000000, 66.244, 40.2808
2.030000, 66.102, 40.4553
2.060000, 65.966, 40.6040
2.090000, 65.838, 40.7226
2.120000, 65.716, 40.8068
2.140000, 65.638, 40.8420
2.180000, 65.489, 40.8375
2.200000, 65.419, 40.7901
2.240000, 65.287, 40.6635
2.270000, 65.197, 40.5498
2.300000, 65.114, 40.4195
2.330000, 65.038, 40.2703
2.360000, 64.968, 40.0989
2.400000, 64.884, 39.7834
2.430000, 64.828, 39.5073
2.470000, 64.760, 39.0901
2.500000, 64.715, 38.7368
2.540000, 64.660, 38.2077
2.580000, 64.612, 37.5965
2.620000, 64.574, 36.9023
2.650000, 64.552, 36.3601
2.690000, 64.530, 35.6099
2.720000, 64.520, 35.0272
2.760000, 64.512, 34.2248
2.800000, 64.511, 33.3504
2.850000, 64.517, 32.2027
2.900000, 64.530, 30.9956
2.950000, 64.549, 29.7261
3.000000, 64.577, 28.3730
3.040000, 64.607, 27.2530
3.070000, 64.633, 26.4025
3.110000, 64.672, 25.2585
3.150000, 64.715, 24.1059
3.200000, 64.773, 22.6251
3.250000, 64.834, 21.1191
3.300000, 64.899, 19.5973
3.350000, 64.968, 18.0514
3.400000, 65.043, 16.4519
3.450000, 65.122, 14.8344
3.500000, 65.205, 13.2276
3.550000, 65.290, 11.6428
3.600000, 65.375, 10.0591
3.650000, 65.460, 8.4905
3.700000, 65.544, 6.9324
3.750000, 65.629, 5.3705
3.820000, 65.750, 3.1605
3.870000, 65.837, 1.6040
3.950000, 65.973, -0.8000
4.000000, 66.055, -2.2603
4.060000, 66.150, -3.9737
4.120000, 66.244, -5.6655
4.180000, 66.335, -7.3406
4.250000, 66.437, -9.2678
4.310000, 66.521, -10.8419
4.370000, 66.601, -12.3349
4.440000, 66.687, -14.0211
4.500000, 66.756, -15.4245
4.550000, 66.810, -16.5630
4.620000, 66.882, -18.1191
4.680000, 66.940, -19.3795
4.750000, 67.004, -20.7391
4.820000, 67.063, -22.0171
4.870000, 67.102, -22.8882
4.940000, 67.153, -24.0441
5.000000, 67.195, -24.9840
5.080000, 67.250, -26.1390
5.150000, 67.298, -27.0361
5.220000, 67.345, -27.8592
5.300000, 67.396, -28.7092
5.380000, 67.449, -29.4679
5.450000, 67.500, -30.0774
5.520000, 67.555, -30.6127
5.600000, 67.624, -31.1417
5.700000, 67.717, -31.7094
5.800000, 67.819, -32.2123
5.900000, 67.935, -32.6896
6.000000, 68.063, -33.1116
6.080000, 68.173, -33.4380
6.150000, 68.272, -33.7247
6.220000, 68.375, -34.0442
6.300000, 68.495, -34.4312
6.400000, 68.652, -34.9363
6.500000, 68.809, -35.4828
6.600000, 68.961, -36.0798
6.700000, 69.108, -36.7465
6.800000, 69.248, -37.4528
6.900000, 69.378, -38.1805
7.000000, 69.494, -38.9152
7.100000, 69.596, -39.6792
7.200000, 69.684, -40.4342
7.300000, 69.758, -41.1400
7.400000, 69.816, -41.7826
7.500000, 69.858, -42.3842
7.620000, 69.895, -42.9893
7.750000, 69.922, -43.4340
7.880000, 69.937, -43.6764
8.000000, 69.954, -43.7097
8.120000, 69.983, -43.5417
8.250000, 70.030, -43.1417
8.380000, 70.105, -42.5942
8.500000, 70.210, -42.0054
8.620000, 70.349, -41.3509
8.750000, 70.535, -40.6897
8.850000, 70.702, -40.2716
9.000000, 70.992, -39.7878
9.120000, 71.240, -39.5939
9.250000, 71.517, -39.6251
9.380000, 71.798, -39.8706
9.500000, 72.047, -40.2738
9.620000, 72.280, -40.8383
9.750000, 72.511, -41.5953
9.880000, 72.708, -42.4355
10.000000, 72.854, -43.2540
10.150000, 72.993, -44.3338
10.300000, 73.090, -45.3204
10.440000, 73.145, -46.1328
10.600000, 73.184, -46.8840
10.750000, 73.208, -47.3634
10.900000, 73.229, -47.6421
11.060000, 73.266, -47.7582
11.200000, 73.313, -47.7424
11.380000, 73.400, -47.6127
11.500000, 73.477, -47.4932
11.720000, 73.648, -47.3069
11.800000, 73.718, -47.2784
12.060000, 73.958, -47.3625
12.200000, 74.083, -47.5500
12.410000, 74.253, -47.8990
12.500000, 74.316, -48.0436
12.650000, 74.405, -48.2572
12.800000, 74.480, -48.3859
13.150000, 74.633, -48.2300
13.200000, 74.657, -48.1545
13.400000, 74.773, -47.7076
13.600000, 74.931, -47.1283
13.800000, 75.138, -46.5366
14.000000, 75.389, -46.1086
14.300000, 75.814, -46.0596
14.500000, 76.093, -46.4428
14.750000, 76.401, -47.3046
15.000000, 76.637, -48.4292
15.250000, 76.796, -49.6217
15.500000, 76.883, -50.5862
15.750000, 76.923, -51.1472
16.000000, 76.953, -51.2203
16.250000, 77.014, -50.9227
16.500000, 77.131, -50.3837
16.750000, 77.309, -49.8397
17.000000, 77.531, -49.4917
17.250000, 77.770, -49.4514
17.500000, 77.995, -49.6710
17.750000, 78.189, -50.0351
18.000000, 78.347, -50.4134
18.250000, 78.479, -50.7109
18.500000, 78.600, -50.8450
18.750000, 78.728, -50.8249
19.000000, 78.876, -50.7142
19.250000, 79.046, -50.6347
19.500000, 79.229, -50.6355
19.750000, 79.412, -50.7475
20.000000, 79.583, -50.9517
20.299999, 79.762, -51.2630
20.600000, 79.914, -51.4987
20.900000, 80.053, -51.5718
21.200001, 80.196, -51.4892
21.400000, 80.302, -51.3746
21.799999, 80.543, -51.1222
22.000000, 80.675, -51.0432
22.400000, 80.944, -51.0798
22.700001, 81.135, -51.2308
23.000000, 81.310, -51.4327
23.299999, 81.468, -51.6479
23.600000, 81.614, -51.8185
24.000000, 81.800, -51.9494
24.299999, 81.937, -51.9949
24.700001, 82.123, -51.9692
25.000000, 82.267, -51.8899
25.400000, 82.476, -51.7596
25.799999, 82.710, -51.6621
26.200001, 82.963, -51.7305
26.500000, 83.155, -51.9409
26.900000, 83.393, -52.4045
27.200001, 83.549, -52.8292
27.600000, 83.726, -53.3600
28.000000, 83.883, -53.7337
28.500000, 84.087, -53.9862
29.000000, 84.320, -54.1678
29.500000, 84.567, -54.4799
30.000000, 84.795, -54.8905
30.400000, 84.959, -55.1898
30.700001, 85.076, -55.3398
31.100000, 85.236, -55.4377
31.500000, 85.408, -55.4753
32.000000, 85.643, -55.5276
32.500000, 85.885, -55.6776
33.000000, 86.118, -55.9003
33.500000, 86.339, -56.1464
34.000000, 86.550, -56.3575
34.500000, 86.760, -56.5342
35.000000, 86.968, -56.6847
35.500000, 87.175, -56.8319
36.000000, 87.383, -56.9832
36.500000, 87.591, -57.1652
37.000000, 87.798, -57.4038
37.500000, 87.996, -57.7162
38.200001, 88.246, -58.1876
38.700001, 88.409, -58.4590
39.500000, 88.673, -58.7257
40.000000, 88.851, -58.8622
40.599998, 89.073, -59.0879
41.200001, 89.294, -59.3757
41.799999, 89.510, -59.7007
42.500000, 89.755, -60.0999
43.099998, 89.957, -60.4226
43.700001, 90.156, -60.7009
44.400002, 90.388, -60.9740
45.000000, 90.588, -61.1759
45.500000, 90.758, -61.3298
46.200001, 91.006, -61.5803
46.799999, 91.218, -61.8995
47.500000, 91.443, -62.3420
48.200001, 91.649, -62.6793
48.700001, 91.801, -62.8372
49.400002, 92.031, -63.0723
50.000000, 92.232, -63.3698
50.799999, 92.484, -63.8340
51.500000, 92.696, -64.1986
52.200001, 92.912, -64.5258
53.000000, 93.165, -64.9177
53.799999, 93.417, -65.3677
54.500000, 93.633, -65.7843
55.200001, 93.847, -66.2051
56.000000, 94.089, -66.6991
57.000000, 94.390, -67.3437
58.000000, 94.686, -68.0320
59.000000, 94.972, -68.7423
60.000000, 95.256, -69.3995
60.799999, 95.490, -69.9277
61.500000, 95.694, -70.4366
62.200001, 95.894, -70.9725
63.000000, 96.116, -71.5772
64.000000, 96.392, -72.3201
65.000000, 96.663, -73.1102
66.000000, 96.923, -73.8876
67.000000, 97.183, -74.6469
68.000000, 97.438, -75.4290
69.000000, 97.690, -76.1669
70.000000, 97.951, -76.8885
71.000000, 98.219, -77.6673
72.000000, 98.491, -78.5128
73.000000, 98.763, -79.4297
74.000000, 99.029, -80.4460
75.000000, 99.281, -81.5235
76.199997, 99.567, -82.8209
77.500000, 99.865, -84.2069
78.800003, 100.158, -85.5335
80.000000, 100.437, -86.7492
81.199997, 100.723, -88.0322
82.500000, 101.030, -89.5283
83.800003, 101.329, -91.1040
85.000000, 101.596, -92.6095
86.199997, 101.860, -94.1447
87.500000, 102.142, -95.8538
88.500000, 102.360, -97.2033
90.000000, 102.687, -99.3324
91.199997, 102.943, -101.1454
92.500000, 103.211, -103.2225
93.800003, 103.464, -105.4173
95.000000, 103.679, -107.5290
96.199997, 103.876, -109.7157
97.500000, 104.070, -112.1394
98.800003, 104.242, -114.6163
100.000000, 104.382, -116.9233
101.500000, 104.530, -119.7826
103.000000, 104.653, -122.5936
104.400002, 104.745, -125.1772
106.000000, 104.822, -128.0328
107.500000, 104.876, -130.5900
109.000000, 104.924, -133.0474
110.599998, 104.973, -135.6090
112.000000, 105.015, -137.8216
113.800003, 105.065, -140.6756
115.000000, 105.090, -142.5928
117.199997, 105.118, -146.1122
118.000000, 105.123, -147.4018
120.599998, 105.108, -151.5850
122.000000, 105.085, -153.7825
124.099998, 105.034, -157.0165
125.000000, 105.004, -158.3801
126.500000, 104.944, -160.5969
128.000000, 104.872, -162.7530
131.500000, 104.665, -167.5000
132.000000, 104.632, -168.1480
134.000000, 104.493, -170.6805
136.000000, 104.343, -173.1102
138.000000, 104.180, -175.4328
140.000000, 104.000, -177.6152
143.000000, 103.707, 179.4832
145.000000, 103.510, 177.7688
147.500000, 103.267, 175.7964
150.000000, 103.027, 173.9949
152.500000, 102.786, 172.3351
155.000000, 102.544, 170.8046
157.500000, 102.302, 169.3773
160.000000, 102.063, 168.0733
162.500000, 101.825, 166.9174
165.000000, 101.586, 165.9189
167.500000, 101.351, 165.0321
170.000000, 101.119, 164.2140
172.500000, 100.891, 163.4908
175.000000, 100.670, 162.8609
177.500000, 100.460, 162.3161
180.000000, 100.258, 161.8347
182.500000, 100.063, 161.3823
185.000000, 99.872, 160.9822
187.500000, 99.691, 160.6301
190.000000, 99.519, 160.2611
192.500000, 99.348, 159.9315
195.000000, 99.182, 159.6609
197.500000, 99.021, 159.4242
200.000000, 98.865, 159.1992
203.000000, 98.679, 158.9776
206.000000, 98.497, 158.8137
209.000000, 98.319, 158.6777
212.000000, 98.146, 158.5419
214.000000, 98.033, 158.4850
218.000000, 97.814, 158.4101
220.000000, 97.709, 158.3893
224.000000, 97.505, 158.3442
227.000000, 97.353, 158.4067
230.000000, 97.209, 158.5340
233.000000, 97.073, 158.6278
236.000000, 96.941, 158.7004
240.000000, 96.767, 158.8072
243.000000, 96.640, 158.9062
247.000000, 96.471, 159.0638
250.000000, 96.343, 159.2090
254.000000, 96.172, 159.4572
258.000000, 95.998, 159.7601
262.000000, 95.828, 160.0813
265.000000, 95.702, 160.3628
269.000000, 95.534, 160.8615
272.000000, 95.412, 161.3448
276.000000, 95.263, 162.1434
280.000000, 95.142, 163.1571
285.000000, 95.053, 164.5022
290.000000, 95.024, 165.7123
295.000000, 95.043, 166.8527
300.000000, 95.159, 167.8940
304.000000, 95.320, 168.0556
307.000000, 95.431, 167.6090
311.000000, 95.507, 166.4982
315.000000, 95.480, 165.2524
320.000000, 95.348, 163.9987
325.000000, 95.164, 163.2125
330.000000, 94.959, 162.8101
335.000000, 94.752, 162.6471
340.000000, 94.553, 162.6635
345.000000, 94.367, 162.8416
350.000000, 94.189, 163.1301
355.000000, 94.018, 163.4771
360.000000, 93.854, 163.9218
365.000000, 93.704, 164.4580
370.000000, 93.573, 165.0189
375.000000, 93.451, 165.5409
382.000000, 93.292, 166.2941
387.000000, 93.192, 166.8306
395.000000, 93.047, 167.6608
400.000000, 92.961, 168.1195
406.000000, 92.853, 168.5961
412.000000, 92.745, 169.0093
418.000000, 92.643, 169.4322
425.000000, 92.516, 169.8922
431.000000, 92.391, 170.2814
437.000000, 92.261, 170.6968
444.000000, 92.112, 171.2483
450.000000, 91.980, 171.7285
455.000000, 91.866, 172.1398
462.000000, 91.704, 172.7386
468.000000, 91.564, 173.3145
475.000000, 91.400, 174.0054
482.000000, 91.234, 174.7431
487.000000, 91.115, 175.3156
494.000000, 90.954, 176.1820
500.000000, 90.824, 176.9014
508.000000, 90.640, 177.8503
515.000000, 90.470, 178.7439
522.000000, 90.304, 179.6924
530.000000, 90.113, -179.2392
538.000000, 89.912, -178.0073
545.000000, 89.741, -176.8172
552.000000, 89.584, -175.5965
560.000000, 89.412, -174.2490
570.000000, 89.112, -172.5771
580.000000, 88.810, -170.7702
590.000000, 88.599, -168.4441
600.000000, 88.338, -166.3173
608.000000, 88.102, -164.5094
615.000000, 87.875, -162.7238
622.000000, 87.655, -160.6056
630.000000, 87.444, -157.9040
640.000000, 87.205, -154.5533
650.000000, 86.958, -151.0854
660.000000, 86.675, -147.2796
670.000000, 86.363, -142.6441
680.000000, 86.140, -137.2355
690.000000, 86.012, -131.3840
700.000000, 85.983, -124.9302
710.000000, 86.083, -118.0350
720.000000, 86.360, -110.9006
730.000000, 86.800, -104.1047
740.000000, 87.367, -97.6392
750.000000, 88.098, -91.2609
762.000000, 89.208, -84.9606
775.000000, 90.484, -80.3417
788.000000, 91.734, -77.3300
800.000000, 92.856, -75.3874
812.000000, 93.998, -74.2779
825.000000, 95.199, -74.4661
838.000000, 96.247, -75.8557
850.000000, 97.129, -77.1991
862.000000, 97.962, -79.0817
875.000000, 98.771, -81.5237
885.000000, 99.356, -83.6614
900.000000, 100.117, -87.4777
912.000000, 100.618, -90.7000
925.000000, 101.066, -94.2516
938.000000, 101.429, -97.8142
950.000000, 101.676, -101.0696
962.000000, 101.849, -104.1458
975.000000, 101.977, -107.1821
988.000000, 102.056, -109.9075
1000.000000, 102.102, -112.1499
1015.000000, 102.124, -114.7021
1030.000000, 102.112, -116.8715
1044.000000, 102.091, -118.5858
1060.000000, 102.066, -120.2311
1075.000000, 102.048, -121.5616
1090.000000, 102.041, -122.7531
1106.000000, 102.038, -123.9386
1120.000000, 102.029, -124.8219
1138.000000, 102.025, -125.7651
1150.000000, 102.023, -126.3283
1172.000000, 102.027, -127.1194
1180.000000, 102.034, -127.3806
1206.000000, 102.060, -128.1541
1220.000000, 102.072, -128.4610
1241.000000, 102.105, -128.7172
1250.000000, 102.130, -128.7730
1265.000000, 102.188, -128.8893
1280.000000, 102.253, -129.0883
1315.000000, 102.357, -129.5127
1320.000000, 102.372, -129.5119
1340.000000, 102.448, -129.4875
1360.000000, 102.517, -129.5137
1380.000000, 102.586, -129.4897
1400.000000, 102.690, -129.4103
1430.000000, 102.878, -129.3304
1450.000000, 103.017, -129.4174
1475.000000, 103.183, -129.4948
1500.000000, 103.371, -129.6218
1525.000000, 103.554, -129.9603
1550.000000, 103.700, -130.4047
1575.000000, 103.805, -130.5339
1600.000000, 103.971, -130.2193
1625.000000, 104.187, -130.2528
1650.000000, 104.398, -130.3258
1675.000000, 104.632, -130.4087
1700.000000, 104.902, -130.5712
1725.000000, 105.200, -131.0286
1750.000000, 105.494, -131.8746
1775.000000, 105.750, -132.8783
1800.000000, 106.010, -133.8933
1825.000000, 106.252, -135.0966
1850.000000, 106.484, -136.2477
1875.000000, 106.743, -137.4342
1900.000000, 107.020, -138.9923
1925.000000, 107.266, -140.8825
1950.000000, 107.485, -142.9358
1975.000000, 107.670, -145.2371
2000.000000, 107.805, -147.6912
2030.000000, 107.884, -150.6398
2060.000000, 107.910, -153.1394
2090.000000, 107.964, -155.4913
2120.000000, 107.994, -158.0484
2140.000000, 108.004, -159.7192
2180.000000, 107.993, -163.3742
2200.000000, 107.918, -165.2512
2240.000000, 107.721, -168.1388
2270.000000, 107.623, -170.0915
2300.000000, 107.507, -172.3629
2330.000000, 107.331, -174.4930
2360.000000, 107.133, -176.3850
2400.000000, 106.851, -178.5586
2430.000000, 106.655, -179.9780
2470.000000, 106.379, 177.9051
2500.000000, 106.110, 176.4373
2540.000000, 105.701, 174.9947
2580.000000, 105.235, 174.4366
2620.000000, 104.830, 175.4596
2650.000000, 104.713, 176.8919
2690.000000, 104.774, 177.7473
2720.000000, 104.749, 177.4941
2760.000000, 104.653, 178.8929
2800.000000, 105.173, -178.2871
2850.000000, 106.374, 178.1839
2900.000000, 106.795, 169.7614
2950.000000, 106.535, 162.7417
3000.000000, 106.118, 157.7733
3040.000000, 105.840, 154.5862
3070.000000, 105.687, 152.3757
3110.000000, 105.570, 149.3661
3150.000000, 105.572, 145.9743
3200.000000, 105.734, 139.9561
3250.000000, 105.863, 130.3014
3300.000000, 105.450, 116.6367
3350.000000, 104.369, 104.4601
3400.000000, 103.536, 95.6500
3450.000000, 103.128, 84.6357
3500.000000, 102.576, 70.6514
3550.000000, 101.827, 55.6196
3600.000000, 101.092, 39.8231
3650.000000, 100.502, 22.7739
3700.000000, 99.947, 4.5479
3750.000000, 99.276, -13.3840
3820.000000, 98.132, -34.2171
3870.000000, 97.369, -44.5449
3950.000000, 96.597, -54.1520
4000.000000, 96.306, -56.7506
4060.000000, 96.266, -55.0560
4120.000000, 97.157, -50.0680
4180.000000, 98.926, -47.5465
4250.000000, 101.377, -51.3940
4310.000000, 103.146, -61.2422
4370.000000, 103.849, -74.7914
4440.000000, 103.269, -84.6011
4500.000000, 103.163, -86.8580
4550.000000, 103.281, -91.0419
4620.000000, 102.749, -95.1435
4680.000000, 102.692, -93.0680
4750.000000, 103.308, -94.9963
4820.000000, 103.289, -99.8199
4870.000000, 103.095, -101.3115
4940.000000, 103.044, -101.6718
5000.000000, 103.215, -101.7958
5080.000000, 103.793, -103.3439
5150.000000, 104.285, -109.1725
5220.000000, 104.032, -117.0187
5300.000000, 102.981, -120.3486
5380.000000, 102.465, -117.6362
5450.000000, 102.482, -118.7469
5520.000000, 101.911, -122.0284
5600.000000, 100.603, -120.0921
5700.000000, 99.698, -107.4024
5800.000000, 100.761, -92.7714
5900.000000, 102.960, -89.2391
6000.000000, 104.238, -95.5688
6080.000000, 104.519, -99.7861
6150.000000, 104.790, -101.3381
6220.000000, 105.269, -103.3297
6300.000000, 105.720, -107.7830
6400.000000, 105.762, -114.0994
6500.000000, 105.441, -118.2799
6600.000000, 105.133, -120.3695
6700.000000, 104.904, -121.6611
6800.000000, 104.756, -122.0485
6900.000000, 104.815, -122.1693
7000.000000, 105.009, -122.9613
7100.000000, 105.250, -124.4109
7200.000000, 105.509, -126.7650
7300.000000, 105.687, -130.1586
7400.000000, 105.688, -134.3425
7500.000000, 105.411, -138.6714
7620.000000, 104.722, -141.7253
7750.000000, 104.120, -140.7952
7880.000000, 104.095, -139.1049
8000.000000, 104.277, -140.6279
8120.000000, 104.176, -144.2233
8250.000000, 103.638, -147.8788
8380.000000, 102.819, -148.4412
8500.000000, 102.350, -146.0401
8620.000000, 102.293, -143.9288
8750.000000, 102.510, -142.6891
8850.000000, 102.886, -143.2375
9000.000000, 103.414, -147.6917
9120.000000, 103.698, -153.4390
9250.000000, 103.745, -162.1187
9380.000000, 103.325, -172.5031
9500.000000, 102.399, 177.3606
9620.000000, 100.878, 168.5750
9750.000000, 98.711, 162.4525
9880.000000, 96.273, 160.8542
10000.000000, 94.072, 163.4679
10150.000000, 91.696, 170.0465
10300.000000, 89.745, 178.3637
10440.000000, 88.124, -173.0661
10600.000000, 86.488, -157.5038
10750.000000, 86.211, -139.8583
10900.000000, 86.710, -130.1262
11060.000000, 87.018, -124.4746
11200.000000, 87.085, -120.4153
11380.000000, 86.813, -114.7067
11500.000000, 86.681, -107.1202
11720.000000, 88.451, -90.1624
11800.000000, 89.606, -88.1931
12060.000000, 92.458, -100.5555
12200.000000, 92.743, -113.5536
12410.000000, 91.244, -133.3932
12500.000000, 89.910, -139.9847
12650.000000, 86.959, -146.0114
12800.000000, 83.405, -145.2474
13150.000000, 77.990, -49.5334
13200.000000, 78.864, -30.2308
13400.000000, 83.457, -14.9384
13600.000000, 86.323, -20.6288
13800.000000, 87.675, -26.0798
14000.000000, 88.779, -27.0951
14300.000000, 90.832, -32.0398
14500.000000, 91.580, -40.1674
14750.000000, 91.539, -50.9144
15000.000000, 90.695, -60.3538
15250.000000, 89.044, -66.5931
15500.000000, 86.865, -65.8157
15750.000000, 85.144, -55.7513
16000.000000, 84.817, -43.9511
16250.000000, 85.225, -37.2485
16500.000000, 85.671, -34.3832
16750.000000, 86.055, -33.6119
17000.000000, 86.335, -35.0411
17250.000000, 86.284, -38.5102
17500.000000, 85.677, -41.5905
17750.000000, 84.775, -41.0873
18000.000000, 84.055, -37.5670
18250.000000, 83.621, -32.4764
18500.000000, 83.745, -25.4217
18750.000000, 84.674, -20.3018
19000.000000, 85.607, -19.6158
19250.000000, 86.014, -19.9258
19500.000000, 85.945, -19.3398
19750.000000, 85.492, -18.6458
20000.000000, 84.573, -18.0344
20300.000000, 82.913, -15.5922
20600.000000, 81.124, -10.9070
20900.000000, 79.297, -6.4243
21200.000000, 77.226, -2.5498
21400.000000, 75.697, -0.3819
21800.000000, 71.943, 1.7446
22000.000000, 69.258, 2.2137
22400.000000, 61.376, 5.9399
22700.000000, 53.686, 12.8783
23000.000000, 45.201, 18.2896
23300.000000, 37.211, 64.6729
23600.000000, 32.825, 10.0067
24000.000000, 31.463, 139.5013
