* Measurement data measured by REW V5.31
* Source: Headset (DS by VECLAN.COM), MICROPHONE (Master Volume), L, volume: 1.000. Timing signal peak level -7.5 dBFS, measurement signal peak level -7.4 dBFS
* Format: 2M Log Swept Sine, 1 sweep at -7.1 dBFS using an acoustic timing reference
* Dated: Apr 14, 2024 6:03:29 PM
* REW Settings:
*  C-weighting compensation: Off
*  Target level: 85.0 dB
* Note: ; Delay -0.0493 ms (-17 mm, -0.67 in) using estimated IR delay relative to Acoustic reference played from HEADPHONE R with no timing offset Clock adjustment: 2.7 ppm
* Measurement: Pink headset R2
* Smoothing: 1/24 octave
* Frequency Step: 1/48 octave
* Start Frequency: 1.000 Hz
*
* Freq(Hz), SPL(dB), Phase(degrees)
1.000000, 66.548, -2.6250
1.015000, 66.546, -2.7007
1.030000, 66.543, -2.7666
1.044000, 66.539, -2.8181
1.060000, 66.533, -2.8642
1.075000, 66.526, -2.8937
1.090000, 66.519, -2.9093
1.106000, 66.511, -2.9127
1.120000, 66.506, -2.9092
1.138000, 66.502, -2.8996
1.150000, 66.502, -2.8904
1.172000, 66.504, -2.8741
1.180000, 66.506, -2.8729
1.206000, 66.511, -2.8612
1.220000, 66.514, -2.8502
1.241000, 66.518, -2.8269
1.250000, 66.518, -2.8144
1.265000, 66.517, -2.7900
1.280000, 66.514, -2.7609
1.315000, 66.495, -2.6734
1.320000, 66.490, -2.6585
1.340000, 66.467, -2.5923
1.360000, 66.435, -2.5139
1.380000, 66.392, -2.4614
1.400000, 66.338, -2.4104
1.430000, 66.232, -2.3072
1.450000, 66.142, -2.2194
1.475000, 66.007, -2.0889
1.500000, 65.841, -1.9408
1.525000, 65.648, -1.7779
1.550000, 65.429, -1.5997
1.575000, 65.190, -1.4272
1.600000, 64.935, -1.2764
1.625000, 64.667, -1.1071
1.650000, 64.391, -0.9180
1.675000, 64.111, -0.7076
1.700000, 63.830, -0.4741
1.725000, 63.554, -0.2157
1.750000, 63.287, 0.0697
1.775000, 63.031, 0.3672
1.800000, 62.792, 0.6628
1.825000, 62.572, 0.9935
1.850000, 62.367, 1.3631
1.875000, 62.170, 1.7757
1.900000, 61.978, 2.2297
1.925000, 61.792, 2.7213
1.950000, 61.610, 3.2469
1.975000, 61.434, 3.7854
2.000000, 61.264, 4.3165
2.030000, 61.068, 4.9825
2.060000, 60.882, 5.6710
2.090000, 60.707, 6.3742
2.120000, 60.543, 7.0845
2.140000, 60.440, 7.5582
2.180000, 60.251, 8.4784
2.200000, 60.165, 8.9188
2.240000, 60.012, 9.8367
2.270000, 59.912, 10.5696
2.300000, 59.825, 11.3307
2.330000, 59.749, 12.1070
2.360000, 59.683, 12.8847
2.400000, 59.611, 13.8543
2.430000, 59.566, 14.5447
2.470000, 59.519, 15.4037
2.500000, 59.492, 15.9884
2.540000, 59.464, 16.6740
2.580000, 59.448, 17.2420
2.620000, 59.450, 17.7225
2.650000, 59.463, 18.0634
2.690000, 59.495, 18.4841
2.720000, 59.528, 18.7674
2.760000, 59.580, 19.0937
2.800000, 59.637, 19.3094
2.850000, 59.712, 19.4570
2.900000, 59.782, 19.4588
2.950000, 59.847, 19.3090
3.000000, 59.915, 19.0041
3.040000, 59.974, 18.6801
3.070000, 60.019, 18.4039
3.110000, 60.079, 17.9968
3.150000, 60.138, 17.5499
3.200000, 60.207, 16.9088
3.250000, 60.266, 16.1961
3.300000, 60.315, 15.4155
3.350000, 60.355, 14.5397
3.400000, 60.390, 13.5332
3.450000, 60.417, 12.4460
3.500000, 60.437, 11.3244
3.550000, 60.447, 10.1960
3.600000, 60.447, 9.0536
3.650000, 60.435, 7.9166
3.700000, 60.411, 6.7588
3.750000, 60.377, 5.5345
3.820000, 60.311, 3.6971
3.870000, 60.252, 2.3605
3.950000, 60.134, 0.2884
4.000000, 60.045, -0.9465
4.060000, 59.923, -2.3723
4.120000, 59.784, -3.8088
4.180000, 59.629, -5.2753
4.250000, 59.428, -6.9883
4.310000, 59.239, -8.3617
4.370000, 59.035, -9.5948
4.440000, 58.777, -10.8821
4.500000, 58.535, -11.8902
4.550000, 58.321, -12.6719
4.620000, 58.008, -13.6757
4.680000, 57.734, -14.3895
4.750000, 57.411, -14.9768
4.820000, 57.078, -15.2778
4.870000, 56.831, -15.3122
4.940000, 56.480, -15.1203
5.000000, 56.188, -14.7655
5.080000, 55.834, -14.0310
5.150000, 55.570, -13.1117
5.220000, 55.341, -11.8823
5.300000, 55.119, -10.1201
5.380000, 54.949, -8.1597
5.450000, 54.857, -6.4717
5.520000, 54.827, -4.8687
5.600000, 54.876, -3.0919
5.700000, 55.030, -1.0357
5.800000, 55.239, 0.5860
5.900000, 55.468, 1.5832
6.000000, 55.732, 2.0507
6.080000, 55.956, 2.1209
6.150000, 56.142, 2.0088
6.220000, 56.307, 1.7221
6.300000, 56.469, 1.1755
6.400000, 56.641, 0.2052
6.500000, 56.773, -0.9076
6.600000, 56.856, -2.0047
6.700000, 56.886, -3.1440
6.800000, 56.868, -4.3087
6.900000, 56.813, -5.3271
7.000000, 56.721, -6.0596
7.100000, 56.590, -6.5536
7.200000, 56.435, -6.7941
7.300000, 56.284, -6.6933
7.400000, 56.142, -6.1621
7.500000, 56.009, -5.2310
7.620000, 55.896, -3.7227
7.750000, 55.884, -1.7517
7.880000, 55.988, 0.4994
8.000000, 56.168, 2.4852
8.120000, 56.428, 4.0918
8.250000, 56.793, 5.4135
8.380000, 57.189, 6.2074
8.500000, 57.543, 6.3852
8.620000, 57.884, 6.1264
8.750000, 58.214, 5.5199
8.850000, 58.424, 4.8638
9.000000, 58.668, 3.6250
9.120000, 58.804, 2.6153
9.250000, 58.888, 1.6248
9.380000, 58.913, 0.7537
9.500000, 58.902, 0.1892
9.620000, 58.867, -0.0413
9.750000, 58.811, 0.0524
9.880000, 58.766, 0.4812
10.000000, 58.750, 1.1967
10.150000, 58.774, 2.3332
10.300000, 58.875, 3.4596
10.440000, 59.046, 4.3764
10.600000, 59.296, 4.9811
10.750000, 59.556, 4.9134
10.900000, 59.814, 4.2833
11.060000, 60.029, 2.9603
11.200000, 60.148, 1.2906
11.380000, 60.168, -1.1771
11.500000, 60.081, -2.9689
11.720000, 59.694, -6.0920
11.800000, 59.473, -7.0264
12.060000, 58.469, -8.7788
12.200000, 57.759, -8.2320
12.410000, 56.639, -4.4251
12.500000, 56.242, -1.4218
12.650000, 55.776, 5.4366
12.800000, 55.714, 13.4401
13.150000, 57.348, 27.4604
13.200000, 57.669, 28.3665
13.400000, 58.972, 29.5024
13.600000, 60.116, 27.5630
13.800000, 60.983, 23.5071
14.000000, 61.566, 18.1996
14.300000, 61.915, 8.7536
14.500000, 61.805, 2.0711
14.750000, 61.277, -6.1337
15.000000, 60.300, -13.6414
15.250000, 58.843, -19.4498
15.500000, 56.888, -21.9079
15.750000, 54.685, -18.0759
16.000000, 53.043, -5.1000
16.250000, 53.055, 11.5393
16.500000, 54.423, 21.2871
16.750000, 55.907, 23.0204
17.000000, 57.028, 20.2832
17.250000, 57.701, 15.4627
17.500000, 57.986, 9.9931
17.750000, 57.955, 4.7953
18.000000, 57.689, 0.4646
18.250000, 57.283, -2.5400
18.500000, 56.856, -3.9803
18.750000, 56.534, -4.0034
19.000000, 56.409, -3.1478
19.250000, 56.500, -2.2642
19.500000, 56.739, -1.9480
19.750000, 57.035, -2.4565
20.000000, 57.301, -3.7061
20.299999, 57.510, -5.8097
20.600000, 57.570, -7.9960
20.900000, 57.492, -9.7307
21.200001, 57.326, -10.6255
21.400000, 57.204, -10.6550
21.799999, 57.046, -9.5263
22.000000, 57.043, -8.6367
22.400000, 57.181, -7.0805
22.700001, 57.333, -6.5015
23.000000, 57.435, -6.3960
23.299999, 57.440, -6.4158
23.600000, 57.353, -6.0706
24.000000, 57.208, -4.5108
24.299999, 57.190, -2.6806
24.700001, 57.355, -0.3455
25.000000, 57.555, 0.6894
25.400000, 57.747, 1.0773
25.799999, 57.750, 1.3983
26.200001, 57.663, 2.9675
26.500000, 57.707, 5.1396
26.900000, 58.092, 8.1635
27.200001, 58.589, 9.3168
27.600000, 59.283, 8.5574
28.000000, 59.766, 5.7368
28.500000, 59.902, 1.2816
29.000000, 59.599, -1.9899
29.500000, 59.115, -2.7718
30.000000, 58.724, -1.0922
30.400000, 58.597, 1.3827
30.700001, 58.645, 3.4398
31.100000, 58.901, 5.7159
31.500000, 59.304, 6.6483
32.000000, 59.759, 5.4880
32.500000, 59.885, 2.7515
33.000000, 59.605, 0.6111
33.500000, 59.166, 0.9509
34.000000, 59.009, 3.4576
34.500000, 59.284, 5.4283
35.000000, 59.688, 5.1836
35.500000, 59.950, 3.4773
36.000000, 60.070, 1.6092
36.500000, 60.161, -0.0035
37.000000, 60.255, -1.5736
37.500000, 60.296, -3.0299
38.200001, 60.308, -3.9447
38.700001, 60.424, -3.8620
39.500000, 60.766, -4.3086
40.000000, 60.885, -4.9979
40.599998, 60.888, -5.0760
41.200001, 60.913, -3.8110
41.799999, 61.097, -2.0749
42.500000, 61.427, -0.9000
43.099998, 61.666, -0.8003
43.700001, 61.807, -1.0653
44.400002, 61.900, -1.4723
45.000000, 61.939, -2.1571
45.500000, 61.883, -2.8692
46.200001, 61.678, -2.7199
46.799999, 61.686, -1.0276
47.500000, 62.137, -0.2424
48.200001, 62.501, -2.5568
48.700001, 62.462, -4.1659
49.400002, 62.348, -3.5101
50.000000, 62.678, -1.6642
50.799999, 63.399, -2.5817
51.500000, 63.638, -5.4207
52.200001, 63.551, -6.8337
53.000000, 63.523, -6.0594
53.799999, 63.750, -4.8051
54.500000, 64.080, -4.4268
55.200001, 64.445, -5.0214
56.000000, 64.802, -6.7705
57.000000, 65.044, -9.4325
58.000000, 65.176, -10.8061
59.000000, 65.449, -11.3424
60.000000, 65.726, -11.5968
60.799999, 66.015, -11.2143
61.500000, 66.320, -11.3191
62.200001, 66.530, -11.7640
63.000000, 66.691, -11.6245
64.000000, 67.048, -11.2120
65.000000, 67.391, -12.3736
66.000000, 67.557, -13.6224
67.000000, 67.792, -14.3304
68.000000, 68.073, -15.7734
69.000000, 68.252, -17.0014
70.000000, 68.530, -17.8189
71.000000, 68.734, -19.6087
72.000000, 68.713, -20.4524
73.000000, 68.815, -19.9878
74.000000, 69.003, -20.2510
75.000000, 69.122, -20.6192
76.199997, 69.341, -20.7099
77.500000, 69.643, -21.1139
78.800003, 70.055, -21.2331
80.000000, 70.541, -22.0246
81.199997, 70.999, -23.2573
82.500000, 71.470, -25.0296
83.800003, 71.798, -27.0734
85.000000, 72.024, -28.3318
86.199997, 72.266, -29.2198
87.500000, 72.541, -29.9601
88.500000, 72.797, -30.4715
90.000000, 73.231, -31.6724
91.199997, 73.607, -32.9330
92.500000, 74.046, -34.5791
93.800003, 74.509, -36.4573
95.000000, 74.937, -38.3878
96.199997, 75.347, -40.3786
97.500000, 75.777, -42.6409
98.800003, 76.172, -45.1805
100.000000, 76.496, -47.6831
101.500000, 76.876, -50.8526
103.000000, 77.288, -54.0775
104.400002, 77.700, -57.4245
106.000000, 78.143, -61.5105
107.500000, 78.565, -65.5331
109.000000, 78.953, -70.1645
110.599998, 79.332, -75.4948
112.000000, 79.644, -80.7534
113.800003, 79.943, -88.0510
115.000000, 80.080, -93.0540
117.199997, 80.149, -102.4580
118.000000, 80.111, -105.8757
120.599998, 79.810, -117.3666
122.000000, 79.514, -123.9594
124.099998, 78.880, -133.5538
125.000000, 78.558, -137.3234
126.500000, 77.953, -142.9726
128.000000, 77.250, -147.5965
131.500000, 75.314, -154.4926
132.000000, 75.031, -155.0510
134.000000, 74.046, -156.6815
136.000000, 73.339, -158.3009
138.000000, 72.792, -159.9786
140.000000, 72.259, -161.7328
143.000000, 71.271, -164.9481
145.000000, 70.416, -166.4996
147.500000, 69.434, -165.2991
150.000000, 68.844, -162.6482
152.500000, 68.385, -160.6021
155.000000, 68.082, -158.7832
157.500000, 67.921, -159.0945
160.000000, 67.604, -159.9800
162.500000, 67.450, -160.4979
165.000000, 67.312, -162.2313
167.500000, 67.070, -164.0293
170.000000, 66.505, -166.0690
172.500000, 65.654, -166.4464
175.000000, 64.961, -164.9548
177.500000, 64.578, -163.2501
180.000000, 64.232, -161.7501
182.500000, 63.749, -159.2605
185.000000, 63.299, -156.0781
187.500000, 62.908, -153.6958
190.000000, 62.573, -151.5435
192.500000, 62.319, -149.6591
195.000000, 62.168, -147.9234
197.500000, 62.157, -146.9659
200.000000, 62.120, -146.6633
203.000000, 61.965, -144.7551
206.000000, 61.908, -141.5816
209.000000, 61.917, -138.6913
212.000000, 61.725, -137.4517
214.000000, 61.568, -138.4934
218.000000, 61.103, -148.3160
220.000000, 60.387, -153.5721
224.000000, 57.622, -144.2312
227.000000, 56.597, -125.2400
230.000000, 56.768, -117.0314
233.000000, 56.980, -113.6591
236.000000, 56.945, -109.5283
240.000000, 56.882, -98.2988
243.000000, 57.248, -89.8711
247.000000, 57.732, -83.9296
250.000000, 58.081, -81.9902
254.000000, 58.689, -76.5366
258.000000, 59.516, -68.3958
262.000000, 60.357, -61.5442
265.000000, 61.156, -57.3635
269.000000, 62.501, -53.6260
272.000000, 63.729, -51.7336
276.000000, 65.687, -52.4687
280.000000, 67.734, -58.9331
285.000000, 69.255, -75.4085
290.000000, 69.157, -98.7770
295.000000, 67.536, -121.6612
300.000000, 64.772, -144.9277
304.000000, 62.336, -173.3812
307.000000, 61.486, 145.6064
311.000000, 63.125, 81.4404
315.000000, 66.002, 46.1591
320.000000, 68.528, 18.7166
325.000000, 69.669, -0.8506
330.000000, 70.076, -13.4591
335.000000, 70.292, -21.5555
340.000000, 70.452, -26.6752
345.000000, 70.522, -29.7017
350.000000, 70.564, -31.3718
355.000000, 70.709, -32.2493
360.000000, 70.904, -32.4878
365.000000, 71.100, -32.4514
370.000000, 71.365, -32.4155
375.000000, 71.667, -32.5076
382.000000, 72.090, -32.2356
387.000000, 72.380, -32.3373
395.000000, 72.796, -31.9586
400.000000, 73.144, -31.3156
406.000000, 73.587, -30.9442
412.000000, 74.011, -30.7022
418.000000, 74.415, -30.5958
425.000000, 74.910, -30.5280
431.000000, 75.366, -30.4288
437.000000, 75.833, -30.4978
444.000000, 76.490, -30.7140
450.000000, 77.327, -31.7441
455.000000, 78.055, -35.1014
462.000000, 78.608, -43.6761
468.000000, 78.532, -52.6445
475.000000, 78.035, -62.8558
482.000000, 77.564, -71.1107
487.000000, 77.402, -74.8725
494.000000, 77.283, -76.8148
500.000000, 77.162, -76.4265
508.000000, 77.085, -75.4243
515.000000, 76.968, -75.5885
522.000000, 76.761, -74.8824
530.000000, 76.493, -73.4463
538.000000, 76.228, -72.5256
545.000000, 76.116, -71.8491
552.000000, 76.022, -70.8604
560.000000, 75.801, -69.0242
570.000000, 75.589, -66.3875
580.000000, 75.464, -63.9482
590.000000, 75.290, -60.6381
600.000000, 75.038, -56.5896
608.000000, 74.889, -52.8073
615.000000, 74.932, -49.0714
622.000000, 75.111, -45.0963
630.000000, 75.405, -40.9137
640.000000, 75.888, -36.0114
650.000000, 76.462, -31.6198
660.000000, 77.107, -28.2472
670.000000, 77.757, -25.0497
680.000000, 78.378, -22.2803
690.000000, 79.010, -20.5951
700.000000, 79.656, -19.1707
710.000000, 80.282, -17.6580
720.000000, 80.907, -16.5122
730.000000, 81.505, -15.6266
740.000000, 82.097, -14.8352
750.000000, 82.698, -14.1982
762.000000, 83.422, -13.7999
775.000000, 84.141, -13.8202
788.000000, 84.835, -13.8405
800.000000, 85.483, -14.0651
812.000000, 86.104, -14.8834
825.000000, 86.702, -15.8904
838.000000, 87.215, -16.6375
850.000000, 87.704, -16.8442
862.000000, 88.248, -17.1328
875.000000, 88.844, -17.8192
885.000000, 89.296, -18.4279
900.000000, 89.977, -19.5553
912.000000, 90.478, -20.7590
925.000000, 91.001, -21.9604
938.000000, 91.559, -23.2528
950.000000, 92.069, -24.6371
962.000000, 92.574, -26.2009
975.000000, 93.092, -28.2645
988.000000, 93.571, -30.5172
1000.000000, 93.986, -32.8352
1015.000000, 94.425, -35.8566
1030.000000, 94.824, -38.7414
1044.000000, 95.148, -41.5603
1060.000000, 95.479, -44.4058
1075.000000, 95.827, -47.1609
1090.000000, 96.140, -50.2691
1106.000000, 96.408, -53.5657
1120.000000, 96.600, -56.2419
1138.000000, 96.794, -59.7573
1150.000000, 96.877, -62.0670
1172.000000, 96.975, -65.9814
1180.000000, 96.996, -67.3002
1206.000000, 97.038, -71.1942
1220.000000, 97.025, -73.0138
1241.000000, 97.007, -75.1570
1250.000000, 97.012, -75.9707
1265.000000, 97.024, -77.2577
1280.000000, 97.041, -78.4161
1315.000000, 97.129, -80.9902
1320.000000, 97.139, -81.3788
1340.000000, 97.155, -82.8501
1360.000000, 97.146, -84.0353
1380.000000, 97.144, -85.1372
1400.000000, 97.170, -86.1173
1430.000000, 97.236, -87.7852
1450.000000, 97.246, -89.0825
1475.000000, 97.150, -90.7747
1500.000000, 96.859, -91.4688
1525.000000, 96.619, -89.0076
1550.000000, 96.951, -85.5165
1575.000000, 97.497, -85.2853
1600.000000, 97.850, -86.5205
1625.000000, 98.095, -87.6818
1650.000000, 98.305, -88.8245
1675.000000, 98.488, -89.9600
1700.000000, 98.644, -91.0841
1725.000000, 98.771, -92.1954
1750.000000, 98.861, -93.2369
1775.000000, 98.906, -94.0635
1800.000000, 98.931, -94.3455
1825.000000, 99.007, -94.0495
1850.000000, 99.171, -93.5886
1875.000000, 99.408, -93.3686
1900.000000, 99.661, -93.5333
1925.000000, 99.890, -93.8004
1950.000000, 100.128, -93.7204
1975.000000, 100.480, -93.2798
2000.000000, 100.990, -93.6075
2030.000000, 101.544, -96.0123
2060.000000, 101.873, -99.0201
2090.000000, 102.081, -101.6089
2120.000000, 102.256, -103.8519
2140.000000, 102.373, -105.2233
2180.000000, 102.645, -107.8077
2200.000000, 102.808, -109.2903
2240.000000, 103.102, -113.5176
2270.000000, 103.053, -117.7391
2300.000000, 102.661, -120.1732
2330.000000, 102.407, -119.3117
2360.000000, 102.536, -118.4893
2400.000000, 102.895, -119.3638
2430.000000, 103.172, -120.9236
2470.000000, 103.488, -124.3827
2500.000000, 103.471, -128.0173
2540.000000, 103.145, -130.8325
2580.000000, 103.099, -131.2936
2620.000000, 103.317, -132.2865
2650.000000, 103.494, -133.8075
2690.000000, 103.676, -136.2183
2720.000000, 103.775, -138.3291
2760.000000, 103.845, -141.1613
2800.000000, 103.894, -143.7467
2850.000000, 104.085, -146.8644
2900.000000, 104.336, -152.0471
2950.000000, 104.320, -158.7538
3000.000000, 104.012, -165.3154
3040.000000, 103.634, -170.1849
3070.000000, 103.290, -173.5201
3110.000000, 102.792, -177.6728
3150.000000, 102.237, 178.4023
3200.000000, 101.477, 173.7507
3250.000000, 100.616, 169.1101
3300.000000, 99.615, 164.5025
3350.000000, 98.421, 159.7803
3400.000000, 96.915, 154.8593
3450.000000, 94.871, 150.3621
3500.000000, 91.927, 151.0844
3550.000000, 88.849, 176.6276
3600.000000, 88.588, -149.9938
3650.000000, 89.781, -137.5591
3700.000000, 90.745, -130.0467
3750.000000, 92.058, -121.3014
3820.000000, 94.599, -117.1378
3870.000000, 96.007, -121.4845
3950.000000, 96.435, -132.7518
4000.000000, 95.817, -133.4261
4060.000000, 95.834, -127.6594
4120.000000, 96.747, -124.0911
4180.000000, 97.982, -124.2195
4250.000000, 99.467, -129.0945
4310.000000, 100.514, -137.1328
4370.000000, 101.269, -147.6979
4440.000000, 101.706, -164.2783
4500.000000, 100.940, 178.9357
4550.000000, 99.333, 169.0603
4620.000000, 97.076, 163.6898
4680.000000, 95.678, 159.4335
4750.000000, 94.071, 155.8278
4820.000000, 93.154, 153.2611
4870.000000, 93.052, 147.9102
4940.000000, 93.486, 133.8907
5000.000000, 94.404, 114.3749
5080.000000, 95.444, 78.1198
5150.000000, 95.714, 45.8256
5220.000000, 95.853, 19.8615
5300.000000, 96.139, -1.3285
5380.000000, 96.643, -14.8107
5450.000000, 97.447, -22.7951
5520.000000, 98.400, -30.8976
5600.000000, 99.111, -40.8962
5700.000000, 99.464, -49.9363
5800.000000, 99.928, -55.9188
5900.000000, 100.279, -61.8969
6000.000000, 100.424, -65.9952
6080.000000, 100.597, -67.2422
6150.000000, 100.952, -67.5714
6220.000000, 101.488, -68.5867
6300.000000, 102.112, -71.3112
6400.000000, 102.706, -75.6968
6500.000000, 103.160, -79.7054
6600.000000, 103.650, -82.9694
6700.000000, 104.308, -86.6079
6800.000000, 105.050, -91.9497
6900.000000, 105.703, -99.4235
7000.000000, 106.103, -108.4255
7100.000000, 106.189, -118.3052
7200.000000, 105.853, -128.4303
7300.000000, 105.080, -137.0417
7400.000000, 104.055, -142.9519
7500.000000, 103.011, -146.1202
7620.000000, 101.941, -147.2871
7750.000000, 101.181, -146.2864
7880.000000, 100.897, -145.3892
8000.000000, 100.859, -147.1416
8120.000000, 100.744, -151.3511
8250.000000, 100.374, -156.9285
8380.000000, 99.896, -162.7593
8500.000000, 99.360, -169.0801
8620.000000, 98.702, -176.1545
8750.000000, 97.878, 174.6707
8850.000000, 97.126, 165.6586
9000.000000, 95.571, 147.8625
9120.000000, 93.837, 128.4326
9250.000000, 91.339, 98.5083
9380.000000, 88.639, 50.8667
9500.000000, 86.966, -6.7300
9620.000000, 86.276, -47.8942
9750.000000, 85.861, -70.3147
9880.000000, 85.589, -78.1982
10000.000000, 85.796, -78.7882
10150.000000, 86.476, -80.0990
10300.000000, 86.833, -83.8446
10440.000000, 86.832, -85.7389
10600.000000, 86.903, -86.1421
10750.000000, 87.070, -87.6157
10900.000000, 87.101, -90.9402
11060.000000, 86.807, -95.2969
11200.000000, 86.301, -98.6411
11380.000000, 85.417, -102.6908
11500.000000, 84.596, -105.1663
11720.000000, 82.945, -103.6138
11800.000000, 82.769, -102.2068
12060.000000, 84.063, -122.6110
12200.000000, 84.892, -156.4067
12410.000000, 86.401, 128.3613
12500.000000, 87.101, 97.9636
12650.000000, 87.808, 58.5828
12800.000000, 87.723, 31.1400
13150.000000, 85.333, 1.1945
13200.000000, 84.871, 0.8387
13400.000000, 83.691, 11.8777
13600.000000, 84.595, 23.3394
13800.000000, 85.587, 20.9114
14000.000000, 85.750, 17.9476
14300.000000, 86.348, 20.3794
14500.000000, 87.073, 15.5491
14750.000000, 87.233, 3.1863
15000.000000, 86.353, -12.4994
15250.000000, 84.252, -30.3367
15500.000000, 80.409, -48.2722
15750.000000, 74.485, -52.9653
16000.000000, 71.310, 77.6719
16250.000000, 74.204, 89.4814
16500.000000, 76.738, 91.2053
16750.000000, 78.708, 95.5358
17000.000000, 80.932, 100.4835
17250.000000, 82.796, 96.3323
17500.000000, 83.478, 90.6833
17750.000000, 84.026, 94.2524
18000.000000, 85.458, 98.1129
18250.000000, 86.712, 91.0017
18500.000000, 86.663, 79.0559
18750.000000, 85.476, 74.7004
19000.000000, 84.710, 84.1382
19250.000000, 84.763, 93.0986
19500.000000, 84.597, 98.3478
19750.000000, 84.383, 107.1605
20000.000000, 84.356, 109.0360
20300.000000, 83.163, 102.9274
20600.000000, 81.115, 99.8557
20900.000000, 78.539, 95.2841
21200.000000, 74.966, 91.0745
21400.000000, 72.098, 91.9192
21800.000000, 66.227, 110.8143
22000.000000, 63.400, 127.6371
22400.000000, 56.557, 157.7019
22700.000000, 50.154, 168.0930
23000.000000, 42.989, 165.2202
23300.000000, 36.245, -151.7678
23600.000000, 32.650, -163.4780
24000.000000, 31.545, -30.5160
