* Measurement data measured by REW V5.31
* Source: Headset (DS by VECLAN.COM), MICROPHONE (Master Volume), L, volume: 1.000. Timing signal peak level -7.9 dBFS, measurement signal peak level -6.0 dBFS
* Format: 2M Log Swept Sine, 1 sweep at -7.1 dBFS using an acoustic timing reference
* Dated: Apr 14, 2024 6:09:38 PM
* REW Settings:
*  C-weighting compensation: Off
*  Target level: 85.0 dB
* Note: ; Delay -0.1278 ms (-44 mm, -1.73 in) using estimated IR delay relative to Acoustic reference played from HEADPHONE L with no timing offset Clock adjustment: 4.3 ppm
* Measurement: Pink headset L4
* Smoothing: 1/24 octave
* Frequency Step: 1/48 octave
* Start Frequency: 1.000 Hz
*
* Freq(Hz), SPL(dB), Phase(degrees)
1.000000, 68.384, 19.7062
1.015000, 68.398, 20.0109
1.030000, 68.412, 20.3124
1.044000, 68.425, 20.5907
1.060000, 68.442, 20.9050
1.075000, 68.457, 21.1958
1.090000, 68.474, 21.4829
1.106000, 68.493, 21.7871
1.120000, 68.514, 22.0550
1.138000, 68.546, 22.4040
1.150000, 68.570, 22.6391
1.172000, 68.621, 23.0671
1.180000, 68.641, 23.2169
1.206000, 68.709, 23.7050
1.220000, 68.748, 23.9672
1.241000, 68.806, 24.3580
1.250000, 68.831, 24.5242
1.265000, 68.872, 24.7986
1.280000, 68.912, 25.0692
1.315000, 68.996, 25.6816
1.320000, 69.006, 25.7666
1.340000, 69.044, 26.0987
1.360000, 69.075, 26.4186
1.380000, 69.096, 26.6854
1.400000, 69.106, 26.9210
1.430000, 69.097, 27.2393
1.450000, 69.073, 27.4259
1.475000, 69.020, 27.6312
1.500000, 68.942, 27.8134
1.525000, 68.840, 27.9779
1.550000, 68.717, 28.1258
1.575000, 68.577, 28.2366
1.600000, 68.422, 28.2935
1.625000, 68.257, 28.3360
1.650000, 68.084, 28.3646
1.675000, 67.906, 28.3794
1.700000, 67.727, 28.3805
1.725000, 67.550, 28.3679
1.750000, 67.379, 28.3416
1.775000, 67.216, 28.2843
1.800000, 67.064, 28.1793
1.825000, 66.927, 28.0595
1.850000, 66.802, 27.9210
1.875000, 66.683, 27.7618
1.900000, 66.570, 27.5833
1.925000, 66.460, 27.3878
1.950000, 66.354, 27.1785
1.975000, 66.252, 26.9408
2.000000, 66.152, 26.6609
2.030000, 66.036, 26.3167
2.060000, 65.922, 25.9644
2.090000, 65.811, 25.6068
2.120000, 65.702, 25.2462
2.140000, 65.629, 25.0050
2.180000, 65.486, 24.5011
2.200000, 65.414, 24.2270
2.240000, 65.273, 23.6581
2.270000, 65.169, 23.2078
2.300000, 65.068, 22.7408
2.330000, 64.969, 22.2618
2.360000, 64.872, 21.7751
2.400000, 64.745, 21.0749
2.430000, 64.652, 20.5465
2.470000, 64.530, 19.8550
2.500000, 64.440, 19.3513
2.540000, 64.323, 18.7061
2.580000, 64.207, 18.0691
2.620000, 64.093, 17.4002
2.650000, 64.009, 16.8973
2.690000, 63.899, 16.2270
2.720000, 63.819, 15.7278
2.760000, 63.714, 15.0741
2.800000, 63.612, 14.3993
2.850000, 63.491, 13.5879
2.900000, 63.376, 12.8335
2.950000, 63.268, 12.1453
3.000000, 63.164, 11.4812
3.040000, 63.084, 10.9699
3.070000, 63.026, 10.6026
3.110000, 62.954, 10.1325
3.150000, 62.886, 9.6834
3.200000, 62.810, 9.1198
3.250000, 62.744, 8.5738
3.300000, 62.690, 8.0668
3.350000, 62.648, 7.6175
3.400000, 62.616, 7.1951
3.450000, 62.594, 6.8026
3.500000, 62.582, 6.4354
3.550000, 62.579, 6.0766
3.600000, 62.587, 5.6839
3.650000, 62.606, 5.2648
3.700000, 62.636, 4.8467
3.750000, 62.678, 4.4535
3.820000, 62.756, 3.8982
3.870000, 62.822, 3.4923
3.950000, 62.941, 2.7919
4.000000, 63.021, 2.2785
4.060000, 63.124, 1.5941
4.120000, 63.236, 0.8777
4.180000, 63.358, 0.1357
4.250000, 63.506, -0.7905
4.310000, 63.633, -1.6158
4.370000, 63.756, -2.4864
4.440000, 63.896, -3.6023
4.500000, 64.014, -4.6122
4.550000, 64.112, -5.4752
4.620000, 64.244, -6.7207
4.680000, 64.351, -7.7880
4.750000, 64.466, -9.0194
4.820000, 64.569, -10.2888
4.870000, 64.636, -11.2230
4.940000, 64.723, -12.5371
5.000000, 64.788, -13.6525
5.080000, 64.863, -15.0693
5.150000, 64.915, -16.2223
5.220000, 64.953, -17.3611
5.300000, 64.982, -18.6334
5.380000, 64.999, -19.8153
5.450000, 65.007, -20.7434
5.520000, 65.009, -21.5332
5.600000, 64.999, -22.3139
5.700000, 64.977, -23.1323
5.800000, 64.957, -23.7247
5.900000, 64.952, -24.0483
6.000000, 64.955, -24.0909
6.080000, 64.968, -23.9798
6.150000, 64.996, -23.7951
6.220000, 65.044, -23.5597
6.300000, 65.124, -23.1953
6.400000, 65.258, -22.6124
6.500000, 65.427, -22.0242
6.600000, 65.632, -21.5388
6.700000, 65.876, -21.1524
6.800000, 66.152, -20.8528
6.900000, 66.446, -20.7363
7.000000, 66.746, -20.8443
7.100000, 67.055, -21.1447
7.200000, 67.367, -21.5987
7.300000, 67.669, -22.2155
7.400000, 67.954, -22.9938
7.500000, 68.224, -23.9153
7.620000, 68.526, -25.1195
7.750000, 68.818, -26.4983
7.880000, 69.073, -27.9669
8.000000, 69.279, -29.3098
8.120000, 69.457, -30.5886
8.250000, 69.621, -31.9206
8.380000, 69.762, -33.1439
8.500000, 69.877, -34.1380
8.620000, 69.978, -35.0140
8.750000, 70.082, -35.8328
8.850000, 70.161, -36.3625
9.000000, 70.281, -37.0043
9.120000, 70.381, -37.4272
9.250000, 70.497, -37.8152
9.380000, 70.621, -38.1367
9.500000, 70.741, -38.4113
9.620000, 70.865, -38.6760
9.750000, 71.003, -38.9535
9.880000, 71.133, -39.2323
10.000000, 71.241, -39.4876
10.150000, 71.363, -39.8320
10.300000, 71.473, -40.1344
10.440000, 71.564, -40.3732
10.600000, 71.663, -40.5805
10.750000, 71.756, -40.6975
10.900000, 71.852, -40.7512
11.060000, 71.965, -40.7819
11.200000, 72.072, -40.8139
11.380000, 72.219, -40.8585
11.500000, 72.321, -40.9064
11.720000, 72.512, -41.0605
11.800000, 72.581, -41.1471
12.060000, 72.795, -41.5376
12.200000, 72.897, -41.8229
12.410000, 73.027, -42.2335
12.500000, 73.072, -42.3762
12.650000, 73.134, -42.5536
12.800000, 73.185, -42.6206
13.150000, 73.295, -42.2867
13.200000, 73.315, -42.1879
13.400000, 73.412, -41.6613
13.600000, 73.548, -41.0188
13.800000, 73.729, -40.3691
14.000000, 73.949, -39.8574
14.300000, 74.322, -39.5890
14.500000, 74.571, -39.7413
14.750000, 74.853, -40.2288
15.000000, 75.087, -40.9180
15.250000, 75.272, -41.6780
15.500000, 75.417, -42.2982
15.750000, 75.537, -42.6864
16.000000, 75.660, -42.8299
16.250000, 75.803, -42.8544
16.500000, 75.974, -42.8280
16.750000, 76.167, -42.8660
17.000000, 76.369, -43.0343
17.250000, 76.565, -43.3550
17.500000, 76.741, -43.7455
17.750000, 76.895, -44.1172
18.000000, 77.031, -44.4029
18.250000, 77.160, -44.5841
18.500000, 77.295, -44.6479
18.750000, 77.441, -44.6367
19.000000, 77.602, -44.6086
19.250000, 77.772, -44.6387
19.500000, 77.943, -44.7170
19.750000, 78.107, -44.8289
20.000000, 78.260, -44.9378
20.299999, 78.433, -45.0410
20.600000, 78.603, -45.0485
20.900000, 78.780, -44.9758
21.200001, 78.971, -44.9006
21.400000, 79.104, -44.8797
21.799999, 79.374, -44.9471
22.000000, 79.505, -45.0395
22.400000, 79.749, -45.3248
22.700001, 79.917, -45.5430
23.000000, 80.075, -45.7293
23.299999, 80.229, -45.8951
23.600000, 80.382, -46.0321
24.000000, 80.586, -46.1897
24.299999, 80.738, -46.3085
24.700001, 80.940, -46.4263
25.000000, 81.096, -46.4801
25.400000, 81.318, -46.5693
25.799999, 81.555, -46.7430
26.200001, 81.792, -47.0860
26.500000, 81.957, -47.4428
26.900000, 82.147, -47.9362
27.200001, 82.269, -48.2305
27.600000, 82.420, -48.4160
28.000000, 82.587, -48.3681
28.500000, 82.846, -48.2202
29.000000, 83.145, -48.2699
29.500000, 83.434, -48.6187
30.000000, 83.683, -49.0707
30.400000, 83.859, -49.3790
30.700001, 83.986, -49.5485
31.100000, 84.157, -49.7251
31.500000, 84.329, -49.9007
32.000000, 84.536, -50.1178
32.500000, 84.733, -50.2917
33.000000, 84.928, -50.3561
33.500000, 85.138, -50.3645
34.000000, 85.367, -50.4127
34.500000, 85.605, -50.5919
35.000000, 85.834, -50.8932
35.500000, 86.045, -51.2491
36.000000, 86.241, -51.5672
36.500000, 86.433, -51.8166
37.000000, 86.628, -52.0250
37.500000, 86.826, -52.2465
38.200001, 87.097, -52.5591
38.700001, 87.289, -52.7482
39.500000, 87.608, -53.0617
40.000000, 87.806, -53.3307
40.599998, 88.027, -53.6787
41.200001, 88.239, -53.9326
41.799999, 88.463, -54.1254
42.500000, 88.734, -54.4452
43.099998, 88.955, -54.8081
43.700001, 89.158, -55.1509
44.400002, 89.387, -55.4536
45.000000, 89.583, -55.6451
45.500000, 89.751, -55.7849
46.200001, 89.993, -56.0140
46.799999, 90.198, -56.2907
47.500000, 90.422, -56.6689
48.200001, 90.629, -57.0187
48.700001, 90.771, -57.2240
49.400002, 90.971, -57.4180
50.000000, 91.155, -57.5022
50.799999, 91.435, -57.6649
51.500000, 91.696, -58.0117
52.200001, 91.946, -58.5260
53.000000, 92.212, -59.1738
53.799999, 92.460, -59.7823
54.500000, 92.674, -60.2261
55.200001, 92.896, -60.6316
56.000000, 93.154, -61.1463
57.000000, 93.459, -61.8153
58.000000, 93.759, -62.3939
59.000000, 94.067, -63.0031
60.000000, 94.367, -63.7036
60.799999, 94.597, -64.2707
61.500000, 94.796, -64.7548
62.200001, 94.997, -65.2330
63.000000, 95.230, -65.8066
64.000000, 95.516, -66.6057
65.000000, 95.787, -67.4012
66.000000, 96.058, -68.1327
67.000000, 96.327, -68.8652
68.000000, 96.596, -69.5678
69.000000, 96.871, -70.2931
70.000000, 97.145, -71.0745
71.000000, 97.419, -71.8989
72.000000, 97.695, -72.8078
73.000000, 97.966, -73.7998
74.000000, 98.229, -74.8667
75.000000, 98.481, -75.9700
76.199997, 98.773, -77.3221
77.500000, 99.077, -78.7847
78.800003, 99.370, -80.2452
80.000000, 99.630, -81.5757
81.199997, 99.884, -82.8529
82.500000, 100.160, -84.1817
83.800003, 100.447, -85.4834
85.000000, 100.723, -86.7180
86.199997, 101.010, -88.0342
87.500000, 101.328, -89.6122
88.500000, 101.572, -90.9354
90.000000, 101.931, -93.1085
91.199997, 102.204, -95.0137
92.500000, 102.482, -97.2003
93.800003, 102.740, -99.5047
95.000000, 102.955, -101.7173
96.199997, 103.146, -103.9826
97.500000, 103.323, -106.4569
98.800003, 103.469, -108.9136
100.000000, 103.581, -111.1159
101.500000, 103.697, -113.7465
103.000000, 103.800, -116.2202
104.400002, 103.898, -118.4039
106.000000, 104.019, -120.8260
107.500000, 104.142, -123.1237
109.000000, 104.260, -125.5298
110.599998, 104.366, -128.1857
112.000000, 104.443, -130.5381
113.800003, 104.524, -133.6018
115.000000, 104.566, -135.6652
117.199997, 104.617, -139.4639
118.000000, 104.625, -140.8436
120.599998, 104.624, -145.2146
122.000000, 104.607, -147.5190
124.099998, 104.559, -150.8839
125.000000, 104.529, -152.2841
126.500000, 104.468, -154.5384
128.000000, 104.398, -156.7136
131.500000, 104.197, -161.5703
132.000000, 104.164, -162.2367
134.000000, 104.023, -164.8163
136.000000, 103.874, -167.2585
138.000000, 103.712, -169.5962
140.000000, 103.530, -171.7861
143.000000, 103.235, -174.6915
145.000000, 103.038, -176.4127
147.500000, 102.797, -178.3814
150.000000, 102.559, 179.8169
152.500000, 102.320, 178.1472
155.000000, 102.077, 176.6183
157.500000, 101.834, 175.2271
160.000000, 101.591, 173.9551
162.500000, 101.347, 172.8476
165.000000, 101.110, 171.9111
167.500000, 100.881, 171.0676
170.000000, 100.655, 170.3064
172.500000, 100.436, 169.6366
175.000000, 100.228, 169.0583
177.500000, 100.026, 168.5486
180.000000, 99.828, 168.0836
182.500000, 99.635, 167.6269
185.000000, 99.448, 167.2153
187.500000, 99.268, 166.8745
190.000000, 99.097, 166.5734
192.500000, 98.926, 166.2984
195.000000, 98.758, 166.0807
197.500000, 98.598, 165.8788
200.000000, 98.442, 165.6796
203.000000, 98.261, 165.5018
206.000000, 98.085, 165.3769
209.000000, 97.915, 165.2878
212.000000, 97.752, 165.2324
214.000000, 97.644, 165.2258
218.000000, 97.428, 165.2266
220.000000, 97.323, 165.2525
224.000000, 97.125, 165.3732
227.000000, 96.988, 165.4680
230.000000, 96.853, 165.5499
233.000000, 96.721, 165.6446
236.000000, 96.593, 165.7671
240.000000, 96.425, 165.9070
243.000000, 96.297, 166.0424
247.000000, 96.128, 166.2967
250.000000, 96.004, 166.4998
254.000000, 95.839, 166.8231
258.000000, 95.676, 167.2112
262.000000, 95.519, 167.6110
265.000000, 95.405, 167.9777
269.000000, 95.256, 168.5869
272.000000, 95.148, 169.1210
276.000000, 95.020, 169.9591
280.000000, 94.925, 170.9195
285.000000, 94.866, 172.1134
290.000000, 94.855, 173.1506
295.000000, 94.889, 174.1274
300.000000, 95.010, 174.8807
304.000000, 95.149, 174.7911
307.000000, 95.232, 174.2367
311.000000, 95.264, 173.0903
315.000000, 95.199, 171.9185
320.000000, 95.030, 170.8348
325.000000, 94.822, 170.2115
330.000000, 94.602, 169.9371
335.000000, 94.384, 169.8770
340.000000, 94.177, 170.0109
345.000000, 93.979, 170.3213
350.000000, 93.788, 170.7255
355.000000, 93.608, 171.1902
360.000000, 93.443, 171.7724
365.000000, 93.293, 172.3979
370.000000, 93.157, 173.0732
375.000000, 93.034, 173.8242
382.000000, 92.861, 174.7986
387.000000, 92.745, 175.3911
395.000000, 92.567, 176.3735
400.000000, 92.464, 177.0208
406.000000, 92.346, 177.7535
412.000000, 92.226, 178.4806
418.000000, 92.109, 179.1483
425.000000, 91.970, 179.8926
431.000000, 91.846, -179.4242
437.000000, 91.728, -178.7579
444.000000, 91.590, -177.9630
450.000000, 91.473, -177.2777
455.000000, 91.370, -176.6458
462.000000, 91.215, -175.7427
468.000000, 91.090, -175.0119
475.000000, 90.953, -174.1260
482.000000, 90.812, -173.2108
487.000000, 90.709, -172.5414
494.000000, 90.569, -171.5615
500.000000, 90.452, -170.7410
508.000000, 90.288, -169.6596
515.000000, 90.134, -168.6660
522.000000, 89.979, -167.6278
530.000000, 89.798, -166.4591
538.000000, 89.604, -165.2096
545.000000, 89.430, -164.0189
552.000000, 89.264, -162.6975
560.000000, 89.093, -161.2357
570.000000, 88.841, -159.4872
580.000000, 88.566, -157.3362
590.000000, 88.323, -155.0397
600.000000, 88.080, -152.8571
608.000000, 87.853, -151.1370
615.000000, 87.620, -149.3936
622.000000, 87.383, -147.3192
630.000000, 87.137, -144.7126
640.000000, 86.852, -141.3375
650.000000, 86.565, -137.8040
660.000000, 86.252, -134.0136
670.000000, 85.929, -129.4338
680.000000, 85.666, -124.1628
690.000000, 85.447, -118.4638
700.000000, 85.306, -111.9907
710.000000, 85.294, -104.8644
720.000000, 85.470, -97.2421
730.000000, 85.815, -90.0284
740.000000, 86.263, -83.0373
750.000000, 86.881, -75.8203
762.000000, 87.903, -68.1080
775.000000, 89.164, -62.0371
788.000000, 90.426, -57.8814
800.000000, 91.563, -54.9500
812.000000, 92.744, -52.8706
825.000000, 94.000, -52.1382
838.000000, 95.093, -52.7137
850.000000, 96.019, -53.3900
862.000000, 96.894, -54.7914
875.000000, 97.735, -56.5414
885.000000, 98.359, -58.0853
900.000000, 99.188, -61.1241
912.000000, 99.753, -63.8664
925.000000, 100.247, -66.9799
938.000000, 100.651, -69.9581
950.000000, 100.961, -72.6048
962.000000, 101.219, -75.1670
975.000000, 101.443, -77.8405
988.000000, 101.607, -80.3944
1000.000000, 101.718, -82.5816
1015.000000, 101.798, -85.1099
1030.000000, 101.821, -87.2707
1044.000000, 101.818, -88.8922
1060.000000, 101.812, -90.3605
1075.000000, 101.812, -91.5258
1090.000000, 101.816, -92.5887
1106.000000, 101.811, -93.6213
1120.000000, 101.794, -94.3176
1138.000000, 101.778, -94.9298
1150.000000, 101.771, -95.2530
1172.000000, 101.763, -95.5783
1180.000000, 101.766, -95.6525
1206.000000, 101.785, -95.7801
1220.000000, 101.801, -95.7343
1241.000000, 101.838, -95.5584
1250.000000, 101.859, -95.4382
1265.000000, 101.905, -95.2102
1280.000000, 101.963, -95.0177
1315.000000, 102.052, -94.6013
1320.000000, 102.063, -94.4675
1340.000000, 102.131, -93.8792
1360.000000, 102.197, -93.4103
1380.000000, 102.251, -92.9005
1400.000000, 102.335, -92.2753
1430.000000, 102.499, -91.2386
1450.000000, 102.633, -90.7170
1475.000000, 102.779, -90.0246
1500.000000, 102.959, -89.2195
1525.000000, 103.157, -88.6795
1550.000000, 103.318, -88.3422
1575.000000, 103.437, -87.6814
1600.000000, 103.619, -86.6561
1625.000000, 103.841, -85.9651
1650.000000, 104.062, -85.2768
1675.000000, 104.313, -84.6461
1700.000000, 104.589, -84.1574
1725.000000, 104.884, -83.9243
1750.000000, 105.179, -84.0600
1775.000000, 105.424, -84.3563
1800.000000, 105.668, -84.5320
1825.000000, 105.915, -84.7946
1850.000000, 106.169, -85.0761
1875.000000, 106.454, -85.4604
1900.000000, 106.756, -86.2514
1925.000000, 107.027, -87.4277
1950.000000, 107.264, -88.8126
1975.000000, 107.457, -90.4339
2000.000000, 107.593, -92.1390
2030.000000, 107.691, -94.0966
2060.000000, 107.749, -95.7769
2090.000000, 107.811, -97.3044
2120.000000, 107.858, -98.9321
2140.000000, 107.887, -99.9875
2180.000000, 107.927, -102.5173
2200.000000, 107.876, -103.9105
2240.000000, 107.706, -105.9641
2270.000000, 107.594, -107.2880
2300.000000, 107.447, -108.6978
2330.000000, 107.263, -109.7532
2360.000000, 107.090, -110.6181
2400.000000, 106.856, -111.6602
2430.000000, 106.680, -112.3431
2470.000000, 106.417, -113.4256
2500.000000, 106.153, -114.0818
2540.000000, 105.748, -114.4655
2580.000000, 105.267, -113.8434
2620.000000, 104.864, -111.4125
2650.000000, 104.776, -108.8290
2690.000000, 104.918, -106.5770
2720.000000, 104.969, -105.9556
2760.000000, 105.001, -103.7074
2800.000000, 105.604, -100.8632
2850.000000, 106.687, -104.2598
2900.000000, 106.955, -111.3703
2950.000000, 106.622, -116.6300
3000.000000, 106.182, -119.7423
3040.000000, 105.913, -121.4881
3070.000000, 105.771, -122.7036
3110.000000, 105.659, -124.3855
3150.000000, 105.676, -126.3906
3200.000000, 105.863, -130.7395
3250.000000, 106.002, -138.6505
3300.000000, 105.611, -150.3566
3350.000000, 104.621, -160.4743
3400.000000, 103.970, -167.4818
3450.000000, 103.734, -177.0971
3500.000000, 103.311, 170.1782
3550.000000, 102.626, 156.1467
3600.000000, 101.828, 141.4776
3650.000000, 101.076, 126.0215
3700.000000, 100.325, 109.9382
3750.000000, 99.499, 94.2469
3820.000000, 98.160, 76.1080
3870.000000, 97.246, 67.5624
3950.000000, 96.269, 61.1860
4000.000000, 95.934, 61.0156
4060.000000, 96.005, 65.7617
4120.000000, 97.147, 72.9256
4180.000000, 99.134, 76.5926
4250.000000, 101.714, 73.5753
4310.000000, 103.490, 64.3783
4370.000000, 104.116, 51.8836
4440.000000, 103.481, 44.6517
4500.000000, 103.507, 44.3346
4550.000000, 103.770, 41.1002
4620.000000, 103.290, 37.3307
4680.000000, 103.073, 39.9200
4750.000000, 103.514, 39.9919
4820.000000, 103.425, 37.3861
4870.000000, 103.180, 37.3167
4940.000000, 102.993, 39.0976
5000.000000, 103.043, 41.5669
5080.000000, 103.666, 44.1351
5150.000000, 104.360, 40.9968
5220.000000, 104.289, 34.8418
5300.000000, 103.322, 32.9221
5380.000000, 102.767, 37.2791
5450.000000, 102.733, 37.9876
5520.000000, 102.110, 36.6708
5600.000000, 100.740, 41.0596
5700.000000, 99.788, 57.4669
5800.000000, 101.022, 75.8762
5900.000000, 103.312, 81.1730
6000.000000, 104.505, 76.8949
6080.000000, 104.691, 74.6722
6150.000000, 104.846, 74.9924
6220.000000, 105.188, 75.2346
6300.000000, 105.521, 73.8513
6400.000000, 105.521, 71.6061
6500.000000, 105.235, 71.2074
6600.000000, 104.960, 72.5320
6700.000000, 104.742, 74.7014
6800.000000, 104.642, 77.9075
6900.000000, 104.787, 81.0563
7000.000000, 105.045, 83.1874
7100.000000, 105.309, 84.5813
7200.000000, 105.566, 85.1152
7300.000000, 105.723, 84.6923
7400.000000, 105.690, 83.5954
7500.000000, 105.371, 82.5669
7620.000000, 104.679, 83.7775
7750.000000, 104.149, 89.0532
7880.000000, 104.172, 94.6780
8000.000000, 104.371, 96.8221
8120.000000, 104.285, 96.9736
8250.000000, 103.777, 97.2623
8380.000000, 102.944, 100.6076
8500.000000, 102.463, 107.1592
8620.000000, 102.508, 113.5244
8750.000000, 102.936, 118.5445
8850.000000, 103.455, 120.0084
9000.000000, 103.969, 117.7322
9120.000000, 104.031, 114.1127
9250.000000, 103.753, 108.8271
9380.000000, 103.017, 102.7609
9500.000000, 101.837, 97.2058
9620.000000, 100.106, 93.4959
9750.000000, 97.775, 93.5355
9880.000000, 95.318, 98.7007
10000.000000, 93.314, 107.3049
10150.000000, 91.416, 119.0831
10300.000000, 89.833, 129.2875
10440.000000, 88.086, 138.2555
10600.000000, 85.534, 158.0197
10750.000000, 84.552, -167.7425
10900.000000, 85.882, -141.2106
11060.000000, 88.113, -125.5415
11200.000000, 89.906, -119.8531
11380.000000, 91.321, -118.8871
11500.000000, 91.722, -118.8537
11720.000000, 92.017, -116.6291
11800.000000, 92.134, -115.3339
12060.000000, 92.904, -114.0816
12200.000000, 93.105, -117.6773
12410.000000, 92.407, -125.2977
12500.000000, 91.822, -128.1745
12650.000000, 90.768, -132.6208
12800.000000, 89.787, -139.0930
13150.000000, 87.385, -173.0599
13200.000000, 87.118, 178.9521
13400.000000, 86.438, 140.8696
13600.000000, 86.380, 107.6132
13800.000000, 86.677, 89.6043
14000.000000, 87.528, 82.8487
14300.000000, 89.106, 76.7689
14500.000000, 89.477, 72.4382
14750.000000, 89.116, 69.2513
15000.000000, 88.042, 68.8847
15250.000000, 86.214, 74.4654
15500.000000, 84.541, 89.2720
15750.000000, 84.029, 107.5635
16000.000000, 84.298, 122.7162
16250.000000, 84.794, 134.9260
16500.000000, 85.351, 144.2025
16750.000000, 85.731, 150.8148
17000.000000, 85.743, 155.7843
17250.000000, 85.302, 161.3031
17500.000000, 84.649, 169.5099
17750.000000, 84.141, 179.9535
18000.000000, 83.784, -169.1053
18250.000000, 83.460, -157.1239
18500.000000, 83.537, -142.5663
18750.000000, 84.353, -129.2562
19000.000000, 85.167, -119.6402
19250.000000, 85.535, -110.0473
19500.000000, 85.614, -99.2928
19750.000000, 85.416, -89.5189
20000.000000, 84.703, -80.7989
20300.000000, 83.200, -68.9320
20600.000000, 81.515, -54.8242
20900.000000, 79.730, -40.8950
21200.000000, 77.657, -27.0450
21400.000000, 76.131, -17.7463
21800.000000, 72.521, 0.4286
22000.000000, 70.027, 9.7510
22400.000000, 62.704, 30.5336
22700.000000, 55.530, 46.0129
23000.000000, 47.496, 55.8303
23300.000000, 39.377, 114.6349
23600.000000, 33.714, 134.6489
24000.000000, 31.595, 20.2129
