* Measurement data measured by REW V5.31
* Source: Headset (DS by VECLAN.COM), MICROPHONE (Master Volume), L, volume: 0.720. Timing signal peak level -15.7 dBFS, measurement signal peak level -14.5 dBFS
* Format: 4M Log Swept Sine, 1 sweep at -10.8 dBFS using an acoustic timing reference
* Dated: Apr 20, 2024 9:41:46 PM
* REW Settings:
*  C-weighting compensation: Off
*  Target level: 75.0 dB
* Note: ; Delay -0.0721 ms (-25 mm, -0.97 in) using estimated IR delay relative to Acoustic reference played from HEADPHONE L with no timing offset
* Measurement: Pink headset L5
* Smoothing: 1/24 octave
* Frequency Step: 1/48 octave
* Start Frequency: 1.000 Hz
*
* Freq(Hz), SPL(dB), Phase(degrees)
1.000000, 67.345, 2.8465
1.015000, 67.439, 2.8364
1.030000, 67.532, 2.8278
1.044000, 67.617, 2.8211
1.060000, 67.712, 2.8146
1.075000, 67.800, 2.8093
1.090000, 67.885, 2.8044
1.106000, 67.976, 2.7984
1.120000, 68.057, 2.7913
1.138000, 68.165, 2.7790
1.150000, 68.239, 2.7693
1.172000, 68.378, 2.7428
1.180000, 68.429, 2.7261
1.206000, 68.595, 2.6718
1.220000, 68.684, 2.6428
1.241000, 68.817, 2.6004
1.250000, 68.872, 2.5828
1.265000, 68.963, 2.5547
1.280000, 69.051, 2.5281
1.315000, 69.242, 2.4734
1.320000, 69.267, 2.4665
1.340000, 69.362, 2.4418
1.360000, 69.446, 2.4227
1.380000, 69.518, 2.3704
1.400000, 69.577, 2.3086
1.430000, 69.636, 2.2255
1.450000, 69.654, 2.1759
1.475000, 69.650, 2.1160
1.500000, 69.615, 2.0474
1.525000, 69.552, 1.9675
1.550000, 69.463, 1.8797
1.575000, 69.352, 1.7663
1.600000, 69.223, 1.6134
1.625000, 69.078, 1.4634
1.650000, 68.922, 1.3192
1.675000, 68.758, 1.1837
1.700000, 68.590, 1.0593
1.725000, 68.420, 0.9484
1.750000, 68.253, 0.8534
1.775000, 68.092, 0.7592
1.800000, 67.940, 0.6513
1.825000, 67.799, 0.5628
1.850000, 67.668, 0.4834
1.875000, 67.541, 0.4007
1.900000, 67.414, 0.3123
1.925000, 67.288, 0.2208
1.950000, 67.163, 0.1297
1.975000, 67.038, 0.0256
2.000000, 66.913, -0.1046
2.030000, 66.762, -0.2460
2.060000, 66.611, -0.3679
2.090000, 66.460, -0.4648
2.120000, 66.307, -0.5310
2.140000, 66.205, -0.5555
2.180000, 65.997, -0.5723
2.200000, 65.892, -0.5750
2.240000, 65.680, -0.5510
2.270000, 65.518, -0.5187
2.300000, 65.354, -0.4737
2.330000, 65.189, -0.4130
2.360000, 65.024, -0.3334
2.400000, 64.803, -0.2389
2.430000, 64.637, -0.1419
2.470000, 64.418, 0.0400
2.500000, 64.254, 0.2219
2.540000, 64.039, 0.5345
2.580000, 63.826, 0.9143
2.620000, 63.610, 1.3365
2.650000, 63.447, 1.7017
2.690000, 63.229, 2.2481
2.720000, 63.066, 2.7006
2.760000, 62.853, 3.3591
2.800000, 62.646, 4.0358
2.850000, 62.402, 4.9513
2.900000, 62.177, 5.9457
2.950000, 61.973, 7.0308
3.000000, 61.786, 8.2143
3.040000, 61.645, 9.2394
3.070000, 61.546, 10.0477
3.110000, 61.424, 11.1597
3.150000, 61.313, 12.2891
3.200000, 61.192, 13.6581
3.250000, 61.094, 14.9582
3.300000, 61.022, 16.1824
3.350000, 60.978, 17.3762
3.400000, 60.962, 18.5358
3.450000, 60.970, 19.6507
3.500000, 60.995, 20.6941
3.550000, 61.032, 21.6285
3.600000, 61.075, 22.3940
3.650000, 61.122, 22.9836
3.700000, 61.174, 23.4207
3.750000, 61.237, 23.7420
3.820000, 61.343, 23.9897
3.870000, 61.423, 24.0434
3.950000, 61.548, 23.9285
4.000000, 61.616, 23.7040
4.060000, 61.687, 23.2750
4.120000, 61.749, 22.6790
4.180000, 61.806, 21.9423
4.250000, 61.862, 20.9406
4.310000, 61.898, 20.0336
4.370000, 61.920, 19.0998
4.440000, 61.926, 17.9144
4.500000, 61.916, 16.7948
4.550000, 61.897, 15.8060
4.620000, 61.858, 14.3698
4.680000, 61.814, 13.1678
4.750000, 61.750, 11.8617
4.820000, 61.671, 10.6056
4.870000, 61.603, 9.7084
4.940000, 61.497, 8.4733
5.000000, 61.401, 7.4610
5.080000, 61.274, 6.2715
5.150000, 61.168, 5.4516
5.220000, 61.057, 4.8021
5.300000, 60.930, 4.2441
5.380000, 60.821, 3.8746
5.450000, 60.760, 3.6970
5.520000, 60.737, 3.7110
5.600000, 60.753, 3.9929
5.700000, 60.831, 4.6039
5.800000, 60.993, 5.2286
5.900000, 61.257, 5.7095
6.000000, 61.628, 6.1804
6.080000, 61.984, 6.4283
6.150000, 62.321, 6.4303
6.220000, 62.675, 6.1568
6.300000, 63.102, 5.5888
6.400000, 63.673, 4.6278
6.500000, 64.257, 3.3376
6.600000, 64.822, 1.6511
6.700000, 65.367, -0.3902
6.800000, 65.893, -2.6376
6.900000, 66.390, -5.0354
7.000000, 66.847, -7.5943
7.100000, 67.266, -10.3315
7.200000, 67.646, -13.1288
7.300000, 67.985, -15.9000
7.400000, 68.280, -18.6758
7.500000, 68.532, -21.5025
7.620000, 68.779, -24.7894
7.750000, 68.980, -28.1055
7.880000, 69.110, -31.2910
8.000000, 69.174, -33.9822
8.120000, 69.189, -36.3114
8.250000, 69.149, -38.4987
8.380000, 69.070, -40.2498
8.500000, 68.973, -41.3598
8.620000, 68.857, -42.0335
8.750000, 68.738, -42.2968
8.850000, 68.668, -42.1377
9.000000, 68.602, -41.3316
9.120000, 68.602, -40.3569
9.250000, 68.675, -39.1247
9.380000, 68.818, -37.8056
9.500000, 68.998, -36.7049
9.620000, 69.219, -35.8153
9.750000, 69.493, -35.0894
9.880000, 69.766, -34.6637
10.000000, 70.000, -34.5484
10.150000, 70.263, -34.7289
10.300000, 70.474, -35.1049
10.440000, 70.619, -35.5890
10.600000, 70.729, -36.1301
10.750000, 70.780, -36.5039
10.900000, 70.791, -36.6956
11.060000, 70.781, -36.5893
11.200000, 70.762, -36.2282
11.380000, 70.758, -35.3664
11.500000, 70.780, -34.5536
11.720000, 70.894, -32.7997
11.800000, 70.968, -32.1420
12.060000, 71.307, -30.2219
12.200000, 71.541, -29.5289
12.410000, 71.924, -28.9637
12.500000, 72.086, -28.9133
12.650000, 72.345, -29.0634
12.800000, 72.580, -29.4420
13.150000, 72.991, -30.9463
13.200000, 73.033, -31.1907
13.400000, 73.162, -32.1345
13.600000, 73.240, -32.8948
13.800000, 73.282, -33.3667
14.000000, 73.316, -33.5083
14.300000, 73.399, -33.2268
14.500000, 73.504, -32.8009
14.750000, 73.698, -32.2556
15.000000, 73.954, -31.9274
15.250000, 74.239, -32.0349
15.500000, 74.512, -32.5177
15.750000, 74.740, -33.2580
16.000000, 74.907, -34.0668
16.250000, 75.018, -34.7738
16.500000, 75.090, -35.1674
16.750000, 75.155, -35.1432
17.000000, 75.249, -34.7298
17.250000, 75.399, -34.0933
17.500000, 75.618, -33.4214
17.750000, 75.892, -32.9343
18.000000, 76.196, -32.7723
18.250000, 76.501, -32.9931
18.500000, 76.777, -33.5075
18.750000, 77.011, -34.1821
19.000000, 77.198, -34.8734
19.250000, 77.349, -35.4733
19.500000, 77.478, -35.8844
19.750000, 77.604, -36.0942
20.000000, 77.742, -36.1522
20.299999, 77.930, -36.1740
20.600000, 78.138, -36.2397
20.900000, 78.347, -36.4162
21.200001, 78.542, -36.6987
21.400000, 78.659, -36.9019
21.799999, 78.870, -37.2284
22.000000, 78.970, -37.3333
22.400000, 79.174, -37.4867
22.700001, 79.331, -37.5793
23.000000, 79.485, -37.6776
23.299999, 79.630, -37.7690
23.600000, 79.770, -37.7759
24.000000, 79.970, -37.6046
24.299999, 80.151, -37.4303
24.700001, 80.440, -37.3600
25.000000, 80.674, -37.5766
25.400000, 80.958, -38.2617
25.799999, 81.172, -39.1118
26.200001, 81.323, -39.7549
26.500000, 81.430, -39.9804
26.900000, 81.607, -40.0362
27.200001, 81.775, -40.0888
27.600000, 82.016, -40.3761
28.000000, 82.229, -40.8566
28.500000, 82.438, -41.3240
29.000000, 82.658, -41.3589
29.500000, 82.960, -41.4243
30.000000, 83.276, -42.1050
30.400000, 83.451, -43.0065
30.700001, 83.517, -43.6029
31.100000, 83.550, -43.9407
31.500000, 83.591, -43.6235
32.000000, 83.755, -42.7093
32.500000, 84.041, -42.0667
33.000000, 84.347, -42.0504
33.500000, 84.604, -42.3774
34.000000, 84.828, -42.6831
34.500000, 85.055, -42.9290
35.000000, 85.288, -43.2205
35.500000, 85.513, -43.5773
36.000000, 85.728, -43.9134
36.500000, 85.943, -44.1979
37.000000, 86.161, -44.4593
37.500000, 86.378, -44.7237
38.200001, 86.672, -45.0387
38.700001, 86.879, -45.2162
39.500000, 87.205, -45.4939
40.000000, 87.398, -45.6811
40.599998, 87.614, -45.9039
41.200001, 87.819, -46.1107
41.799999, 88.015, -46.3349
42.500000, 88.231, -46.6318
43.099998, 88.409, -46.8756
43.700001, 88.589, -47.0932
44.400002, 88.812, -47.3379
45.000000, 89.014, -47.5385
45.500000, 89.196, -47.6947
46.200001, 89.475, -47.9656
46.799999, 89.722, -48.3385
47.500000, 89.985, -48.8737
48.200001, 90.212, -49.2763
48.700001, 90.370, -49.4310
49.400002, 90.598, -49.5878
50.000000, 90.789, -49.7712
50.799999, 91.026, -50.0615
51.500000, 91.233, -50.3758
52.200001, 91.439, -50.8552
53.000000, 91.660, -51.4406
53.799999, 91.921, -51.9618
54.500000, 92.189, -52.6014
55.200001, 92.454, -53.2395
56.000000, 92.818, -53.7087
57.000000, 93.343, -55.1571
58.000000, 93.570, -56.6819
59.000000, 93.802, -55.7195
60.000000, 94.268, -55.3934
60.799999, 94.482, -55.9561
61.500000, 94.596, -55.8688
62.200001, 94.771, -55.5594
63.000000, 95.008, -55.7014
64.000000, 95.265, -56.3473
65.000000, 95.537, -57.1780
66.000000, 95.812, -58.2724
67.000000, 96.074, -59.2923
68.000000, 96.342, -60.0890
69.000000, 96.625, -60.6524
70.000000, 96.933, -61.2466
71.000000, 97.208, -62.0703
72.000000, 97.447, -62.7563
73.000000, 97.711, -63.3847
74.000000, 97.979, -64.2390
75.000000, 98.238, -65.0505
76.199997, 98.577, -65.9832
77.500000, 98.946, -67.0295
78.800003, 99.320, -67.9736
80.000000, 99.673, -68.9579
81.199997, 100.013, -70.0843
82.500000, 100.379, -71.3437
83.800003, 100.757, -72.7223
85.000000, 101.101, -74.0872
86.199997, 101.438, -75.4556
87.500000, 101.788, -76.9958
88.500000, 102.041, -78.1401
90.000000, 102.456, -79.9661
91.199997, 102.770, -81.9700
92.500000, 103.052, -84.1960
93.800003, 103.327, -86.2907
95.000000, 103.593, -88.1435
96.199997, 103.870, -90.0479
97.500000, 104.163, -92.1945
98.800003, 104.447, -94.4359
100.000000, 104.699, -96.6381
101.500000, 104.995, -99.5755
103.000000, 105.278, -102.6619
104.400002, 105.528, -105.6948
106.000000, 105.783, -109.2452
107.500000, 105.979, -112.6006
109.000000, 106.133, -115.9507
110.599998, 106.253, -119.5689
112.000000, 106.320, -122.7687
113.800003, 106.370, -126.8249
115.000000, 106.392, -129.4456
117.199997, 106.412, -134.0056
118.000000, 106.413, -135.5743
120.599998, 106.356, -140.7389
122.000000, 106.252, -143.3128
124.099998, 106.101, -146.8349
125.000000, 106.041, -148.3324
126.500000, 105.942, -150.7627
128.000000, 105.848, -153.1017
131.500000, 105.608, -158.3558
132.000000, 105.568, -159.0734
134.000000, 105.399, -161.8572
136.000000, 105.213, -164.4815
138.000000, 105.018, -166.9376
140.000000, 104.813, -169.3028
143.000000, 104.486, -172.5565
145.000000, 104.267, -174.4508
147.500000, 103.991, -176.5723
150.000000, 103.709, -178.4656
152.500000, 103.435, 179.8484
155.000000, 103.171, 178.3285
157.500000, 102.906, 177.0087
160.000000, 102.636, 175.8153
162.500000, 102.380, 174.7657
165.000000, 102.143, 173.6808
167.500000, 101.907, 172.6607
170.000000, 101.680, 171.7025
172.500000, 101.465, 170.7863
175.000000, 101.240, 170.0002
177.500000, 101.018, 169.4813
180.000000, 100.798, 169.0538
182.500000, 100.593, 168.7704
185.000000, 100.410, 168.4660
187.500000, 100.227, 168.1174
190.000000, 100.042, 167.8128
192.500000, 99.866, 167.5775
195.000000, 99.696, 167.3300
197.500000, 99.519, 167.0547
200.000000, 99.347, 166.8561
203.000000, 99.173, 166.6328
206.000000, 98.999, 166.3561
209.000000, 98.825, 166.2046
212.000000, 98.658, 166.0923
214.000000, 98.548, 166.0379
218.000000, 98.327, 165.8786
220.000000, 98.215, 165.8168
224.000000, 97.990, 165.8265
227.000000, 97.833, 165.9710
230.000000, 97.691, 166.1554
233.000000, 97.554, 166.2637
236.000000, 97.427, 166.3089
240.000000, 97.280, 166.3452
243.000000, 97.151, 166.5585
247.000000, 96.974, 166.9415
250.000000, 96.854, 167.0657
254.000000, 96.701, 167.2066
258.000000, 96.558, 167.4557
262.000000, 96.426, 167.7518
265.000000, 96.318, 168.0496
269.000000, 96.164, 168.5377
272.000000, 96.045, 168.9025
276.000000, 95.878, 169.4426
280.000000, 95.721, 170.0841
285.000000, 95.550, 171.1581
290.000000, 95.424, 172.4817
295.000000, 95.356, 173.9266
300.000000, 95.387, 175.4965
304.000000, 95.523, 176.3961
307.000000, 95.646, 176.5368
311.000000, 95.773, 176.0426
315.000000, 95.812, 175.0853
320.000000, 95.740, 174.0015
325.000000, 95.592, 173.4323
330.000000, 95.418, 173.0883
335.000000, 95.258, 173.0721
340.000000, 95.100, 173.2823
345.000000, 94.957, 173.4295
350.000000, 94.824, 173.6831
355.000000, 94.693, 174.0190
360.000000, 94.566, 174.2955
365.000000, 94.457, 174.7402
370.000000, 94.366, 175.2704
375.000000, 94.277, 175.8098
382.000000, 94.141, 176.4144
387.000000, 94.057, 176.8068
395.000000, 93.969, 177.1918
400.000000, 93.900, 177.3804
406.000000, 93.794, 177.6345
412.000000, 93.638, 177.7534
418.000000, 93.460, 177.9532
425.000000, 93.264, 178.2317
431.000000, 93.099, 178.6441
437.000000, 92.922, 179.2855
444.000000, 92.714, -179.8336
450.000000, 92.557, -179.1330
455.000000, 92.438, -178.3925
462.000000, 92.296, -177.3419
468.000000, 92.171, -176.6238
475.000000, 92.013, -175.8423
482.000000, 91.866, -174.8141
487.000000, 91.767, -174.1628
494.000000, 91.622, -173.3356
500.000000, 91.491, -172.5004
508.000000, 91.315, -171.3925
515.000000, 91.151, -170.3309
522.000000, 90.992, -169.1915
530.000000, 90.811, -167.7727
538.000000, 90.611, -166.4745
545.000000, 90.445, -165.2855
552.000000, 90.294, -164.0433
560.000000, 90.107, -162.4022
570.000000, 89.863, -160.2545
580.000000, 89.572, -158.0495
590.000000, 89.330, -156.0629
600.000000, 89.033, -153.7480
608.000000, 88.777, -151.2675
615.000000, 88.593, -149.0407
622.000000, 88.419, -146.8270
630.000000, 88.190, -144.0072
640.000000, 87.937, -140.0723
650.000000, 87.736, -136.0192
660.000000, 87.559, -131.5209
670.000000, 87.399, -126.9256
680.000000, 87.216, -122.2585
690.000000, 87.026, -116.1518
700.000000, 87.041, -108.6311
710.000000, 87.294, -101.7811
720.000000, 87.609, -94.8969
730.000000, 88.099, -87.2137
740.000000, 88.866, -80.5282
750.000000, 89.724, -75.8373
762.000000, 90.674, -70.9292
775.000000, 91.928, -65.2801
788.000000, 93.294, -62.6198
800.000000, 94.276, -62.2418
812.000000, 95.137, -60.8400
825.000000, 96.198, -59.2951
838.000000, 97.285, -59.0912
850.000000, 98.284, -59.3869
862.000000, 99.295, -60.3583
875.000000, 100.308, -62.6260
885.000000, 101.003, -64.9007
900.000000, 101.895, -69.0629
912.000000, 102.464, -72.6390
925.000000, 102.963, -76.4812
938.000000, 103.369, -80.1976
950.000000, 103.673, -83.5190
962.000000, 103.905, -86.7737
975.000000, 104.075, -90.0040
988.000000, 104.196, -92.8137
1000.000000, 104.292, -95.2730
1015.000000, 104.365, -98.1353
1030.000000, 104.400, -100.6598
1044.000000, 104.419, -102.7477
1060.000000, 104.425, -104.9658
1075.000000, 104.397, -106.8608
1090.000000, 104.355, -108.4269
1106.000000, 104.324, -109.9172
1120.000000, 104.282, -111.0968
1138.000000, 104.220, -112.1809
1150.000000, 104.193, -112.7416
1172.000000, 104.140, -113.6463
1180.000000, 104.121, -113.8729
1206.000000, 104.099, -114.4350
1220.000000, 104.092, -114.6657
1241.000000, 104.105, -114.7700
1250.000000, 104.121, -114.8100
1265.000000, 104.146, -114.8818
1280.000000, 104.176, -114.8728
1315.000000, 104.272, -114.7736
1320.000000, 104.286, -114.7393
1340.000000, 104.346, -114.5176
1360.000000, 104.412, -114.1818
1380.000000, 104.494, -113.8944
1400.000000, 104.603, -113.5821
1430.000000, 104.811, -113.1703
1450.000000, 104.971, -113.0812
1475.000000, 105.160, -113.0094
1500.000000, 105.355, -113.0882
1525.000000, 105.522, -113.1466
1550.000000, 105.707, -113.1193
1575.000000, 105.874, -113.3305
1600.000000, 105.998, -113.1132
1625.000000, 106.227, -112.5971
1650.000000, 106.485, -112.6877
1675.000000, 106.737, -112.7361
1700.000000, 107.027, -112.9286
1725.000000, 107.301, -113.6389
1750.000000, 107.523, -114.2929
1775.000000, 107.774, -114.8186
1800.000000, 108.034, -115.5978
1825.000000, 108.288, -116.3979
1850.000000, 108.578, -117.2936
1875.000000, 108.874, -118.7720
1900.000000, 109.090, -120.5219
1925.000000, 109.274, -122.0289
1950.000000, 109.480, -123.6040
1975.000000, 109.663, -125.3939
2000.000000, 109.845, -127.2249
2030.000000, 110.045, -129.8300
2060.000000, 110.156, -132.6980
2090.000000, 110.227, -135.3973
2120.000000, 110.253, -138.2734
2140.000000, 110.245, -140.1896
2180.000000, 110.122, -144.0156
2200.000000, 110.011, -145.6604
2240.000000, 109.768, -148.5548
2270.000000, 109.560, -150.2483
2300.000000, 109.402, -151.6651
2330.000000, 109.247, -153.4472
2360.000000, 109.054, -154.9634
2400.000000, 108.783, -157.0874
2430.000000, 108.514, -158.3000
2470.000000, 108.213, -159.5844
2500.000000, 107.963, -160.5363
2540.000000, 107.643, -161.4716
2580.000000, 107.263, -162.2814
2620.000000, 106.874, -162.1978
2650.000000, 106.627, -161.4457
2690.000000, 106.548, -159.8796
2720.000000, 106.624, -160.0462
2760.000000, 106.498, -161.7470
2800.000000, 106.068, -161.7386
2850.000000, 105.998, -157.1368
2900.000000, 106.912, -156.3238
2950.000000, 107.438, -161.9696
3000.000000, 107.328, -167.5344
3040.000000, 107.097, -170.6458
3070.000000, 106.942, -172.4635
3110.000000, 106.815, -174.4743
3150.000000, 106.812, -176.5885
3200.000000, 106.979, 179.8722
3250.000000, 107.274, 174.3293
3300.000000, 107.554, 166.0950
3350.000000, 107.430, 154.7289
3400.000000, 106.623, 142.6356
3450.000000, 105.883, 133.7638
3500.000000, 105.918, 124.6491
3550.000000, 106.229, 111.5295
3600.000000, 106.427, 94.8439
3650.000000, 106.335, 75.7100
3700.000000, 105.888, 55.6050
3750.000000, 105.106, 36.3220
3820.000000, 103.663, 13.6584
3870.000000, 102.594, 1.7161
3950.000000, 101.189, -9.5696
4000.000000, 100.686, -12.5208
4060.000000, 100.488, -13.2280
4120.000000, 100.787, -11.1077
4180.000000, 101.802, -8.1824
4250.000000, 103.654, -7.9111
4310.000000, 105.419, -11.8252
4370.000000, 106.943, -20.2242
4440.000000, 107.731, -34.0837
4500.000000, 107.393, -43.8395
4550.000000, 107.066, -47.9683
4620.000000, 106.962, -54.3599
4680.000000, 106.402, -60.6025
4750.000000, 105.222, -62.2270
4820.000000, 104.609, -58.3315
4870.000000, 104.552, -56.4569
4940.000000, 104.607, -53.7371
5000.000000, 105.103, -51.6740
5080.000000, 105.717, -55.3809
5150.000000, 105.329, -59.4910
5220.000000, 104.678, -58.8601
5300.000000, 104.275, -55.7556
5380.000000, 104.179, -50.5742
5450.000000, 104.707, -45.4743
5520.000000, 105.515, -44.4142
5600.000000, 106.040, -46.4282
5700.000000, 106.199, -47.9875
5800.000000, 106.370, -46.3865
5900.000000, 107.276, -44.6836
6000.000000, 108.225, -49.7527
6080.000000, 108.277, -56.0796
6150.000000, 107.836, -60.1284
6220.000000, 107.188, -61.3527
6300.000000, 106.634, -59.0992
6400.000000, 106.654, -55.2812
6500.000000, 106.984, -54.4319
6600.000000, 107.163, -54.8313
6700.000000, 107.340, -54.9938
6800.000000, 107.574, -56.0536
6900.000000, 107.683, -57.9716
7000.000000, 107.669, -59.5488
7100.000000, 107.623, -60.6461
7200.000000, 107.616, -61.3259
7300.000000, 107.703, -62.4272
7400.000000, 107.719, -64.7290
7500.000000, 107.511, -67.3229
7620.000000, 107.040, -69.5855
7750.000000, 106.352, -70.1759
7880.000000, 105.652, -67.3193
8000.000000, 105.489, -63.0723
8120.000000, 105.731, -61.1946
8250.000000, 105.918, -62.1990
8380.000000, 105.831, -64.3573
8500.000000, 105.528, -66.1316
8620.000000, 105.146, -67.0886
8750.000000, 104.762, -67.8462
8850.000000, 104.481, -68.7834
9000.000000, 103.888, -70.6263
9120.000000, 103.332, -71.0820
9250.000000, 102.977, -71.7521
9380.000000, 102.618, -75.5768
9500.000000, 101.798, -80.6827
9620.000000, 100.440, -84.8517
9750.000000, 98.439, -86.2502
9880.000000, 96.134, -81.6168
10000.000000, 94.317, -70.8009
10150.000000, 93.318, -54.6030
10300.000000, 93.354, -43.3033
10440.000000, 93.618, -36.8607
10600.000000, 93.918, -33.3684
10750.000000, 93.896, -33.3605
10900.000000, 93.364, -34.6726
11060.000000, 92.225, -35.1744
11200.000000, 90.825, -33.8851
11380.000000, 88.364, -26.7546
11500.000000, 86.734, -11.5638
11720.000000, 87.939, 32.0286
11800.000000, 89.427, 38.4539
12060.000000, 92.646, 31.2598
12200.000000, 92.969, 21.2095
12410.000000, 91.602, 3.3402
12500.000000, 90.138, -3.7012
12650.000000, 86.741, 3.5173
12800.000000, 85.058, 89.6385
13150.000000, 88.934, 103.1923
13200.000000, 89.290, 103.3314
13400.000000, 90.472, 106.8207
13600.000000, 91.818, 111.3242
13800.000000, 93.074, 113.5630
14000.000000, 94.240, 115.1456
14300.000000, 96.221, 113.6849
14500.000000, 97.243, 107.7061
14750.000000, 97.569, 96.4061
15000.000000, 96.599, 85.5338
15250.000000, 94.668, 79.5408
15500.000000, 92.329, 80.0988
15750.000000, 90.059, 88.0090
16000.000000, 88.594, 103.8383
16250.000000, 88.663, 120.3909
16500.000000, 89.711, 130.9140
16750.000000, 91.008, 134.5272
17000.000000, 91.911, 131.8172
17250.000000, 91.952, 125.9216
17500.000000, 91.066, 121.1795
17750.000000, 89.556, 121.1384
18000.000000, 87.986, 127.4135
18250.000000, 87.017, 138.4711
18500.000000, 86.894, 149.3143
18750.000000, 87.216, 156.5239
19000.000000, 87.472, 159.3065
19250.000000, 87.144, 158.9291
19500.000000, 85.996, 158.7600
19750.000000, 84.207, 161.7832
20000.000000, 82.153, 168.5578
20300.000000, 79.676, 179.1223
20600.000000, 77.270, -169.8321
20900.000000, 74.788, -159.0930
21200.000000, 72.015, -149.5039
21400.000000, 69.846, -143.1427
21800.000000, 64.910, -126.0696
22000.000000, 62.138, -116.6095
22400.000000, 54.774, -102.0177
22700.000000, 48.009, -96.7839
23000.000000, 42.304, -103.1735
23300.000000, 39.906, -79.8265
23600.000000, 39.558, -60.5975
24000.000000, 39.918, 153.9833
