* Measurement data measured by REW V5.31
* Source: Headset (DS by VECLAN.COM), MICROPHONE (Master Volume), L, volume: 0.720. Timing signal peak level -15.6 dBFS, measurement signal peak level -14.3 dBFS
* Format: 4M Log Swept Sine, 1 sweep at -10.8 dBFS using an acoustic timing reference
* Dated: Apr 20, 2024 9:39:42 PM
* REW Settings:
*  C-weighting compensation: Off
*  Target level: 75.0 dB
* Note: ; Delay -0.0604 ms (-21 mm, -0.82 in) using estimated IR delay relative to Acoustic reference played from HEADPHONE L with no timing offset Clock adjustment: 1.4 ppm
* Measurement: Pink headset L3
* Smoothing: 1/24 octave
* Frequency Step: 1/48 octave
* Start Frequency: 1.000 Hz
*
* Freq(Hz), SPL(dB), Phase(degrees)
1.000000, 68.844, 36.6638
1.015000, 68.907, 35.2559
1.030000, 68.969, 33.8752
1.044000, 69.028, 32.6082
1.060000, 69.097, 31.1820
1.075000, 69.163, 29.8609
1.090000, 69.230, 28.5469
1.106000, 69.304, 27.1262
1.120000, 69.372, 25.8286
1.138000, 69.463, 24.0644
1.150000, 69.525, 22.8310
1.172000, 69.643, 20.4585
1.180000, 69.687, 19.5596
1.206000, 69.830, 16.5510
1.220000, 69.907, 14.8876
1.241000, 70.022, 12.3561
1.250000, 70.071, 11.2633
1.265000, 70.151, 9.4387
1.280000, 70.230, 7.6178
1.315000, 70.402, 3.4292
1.320000, 70.425, 2.8417
1.340000, 70.513, 0.5287
1.360000, 70.593, -1.7149
1.380000, 70.664, -3.9179
1.400000, 70.725, -6.0496
1.430000, 70.793, -9.0773
1.450000, 70.823, -10.9852
1.475000, 70.839, -13.2947
1.500000, 70.833, -15.6407
1.525000, 70.805, -18.0649
1.550000, 70.758, -20.5476
1.575000, 70.696, -23.0826
1.600000, 70.619, -25.6597
1.625000, 70.532, -28.2131
1.650000, 70.435, -30.7187
1.675000, 70.332, -33.1549
1.700000, 70.225, -35.5036
1.725000, 70.117, -37.7506
1.750000, 70.010, -39.8848
1.775000, 69.906, -41.9161
1.800000, 69.809, -43.8583
1.825000, 69.719, -45.6916
1.850000, 69.638, -47.4844
1.875000, 69.562, -49.3204
1.900000, 69.491, -51.2152
1.925000, 69.422, -53.1530
1.950000, 69.355, -55.1120
1.975000, 69.287, -57.0874
2.000000, 69.217, -59.0744
2.030000, 69.129, -61.4006
2.060000, 69.034, -63.6345
2.090000, 68.929, -65.7464
2.120000, 68.812, -67.7103
2.140000, 68.725, -68.9265
2.180000, 68.532, -71.1428
2.200000, 68.425, -72.1724
2.240000, 68.207, -74.2121
2.270000, 68.045, -75.8090
2.300000, 67.879, -77.4610
2.330000, 67.705, -79.1453
2.360000, 67.519, -80.8349
2.400000, 67.243, -83.0889
2.430000, 67.007, -84.7055
2.470000, 66.647, -86.6795
2.500000, 66.336, -87.9695
2.540000, 65.854, -89.3596
2.580000, 65.268, -90.4014
2.620000, 64.534, -91.3224
2.650000, 63.889, -91.9760
2.690000, 62.939, -92.7754
2.720000, 62.189, -93.2782
2.760000, 61.179, -93.7221
2.800000, 60.211, -93.7899
2.850000, 59.144, -92.8961
2.900000, 58.337, -90.1895
2.950000, 57.856, -84.6002
3.000000, 57.645, -74.7797
3.040000, 57.627, -62.6443
3.070000, 57.691, -50.8363
3.110000, 57.871, -33.2701
3.150000, 58.149, -17.2909
3.200000, 58.614, -3.2563
3.250000, 59.195, 4.7608
3.300000, 59.899, 8.8928
3.350000, 60.798, 11.0235
3.400000, 61.908, 12.1299
3.450000, 63.158, 12.5664
3.500000, 64.462, 12.5052
3.550000, 65.737, 12.0382
3.600000, 66.903, 11.1877
3.650000, 67.899, 9.9985
3.700000, 68.722, 8.5427
3.750000, 69.420, 6.9341
3.820000, 70.246, 4.5568
3.870000, 70.755, 2.8447
3.950000, 71.480, 0.1193
4.000000, 71.903, -1.6205
4.060000, 72.387, -3.8003
4.120000, 72.825, -6.1082
4.180000, 73.212, -8.4838
4.250000, 73.607, -11.2571
4.310000, 73.907, -13.5515
4.370000, 74.179, -15.7697
4.440000, 74.461, -18.3894
4.500000, 74.668, -20.7279
4.550000, 74.816, -22.7145
4.620000, 74.987, -25.4934
4.680000, 75.105, -27.7876
4.750000, 75.212, -30.3200
4.820000, 75.285, -32.8251
4.870000, 75.317, -34.6622
4.940000, 75.330, -37.2627
5.000000, 75.315, -39.4650
5.080000, 75.257, -42.2434
5.150000, 75.173, -44.4914
5.220000, 75.056, -46.7121
5.300000, 74.883, -49.2574
5.380000, 74.668, -51.7124
5.450000, 74.447, -53.6969
5.520000, 74.195, -55.4603
5.600000, 73.866, -57.3045
5.700000, 73.397, -59.4144
5.800000, 72.876, -61.1615
5.900000, 72.300, -62.3461
6.000000, 71.658, -62.8896
6.080000, 71.117, -62.8797
6.150000, 70.647, -62.5130
6.220000, 70.194, -61.7826
6.300000, 69.689, -60.3778
6.400000, 69.072, -57.6756
6.500000, 68.538, -54.1348
6.600000, 68.172, -50.0944
6.700000, 68.005, -45.6933
6.800000, 68.000, -41.1551
6.900000, 68.113, -37.0212
7.000000, 68.323, -33.6386
7.100000, 68.642, -31.0065
7.200000, 69.025, -29.0632
7.300000, 69.404, -27.7882
7.400000, 69.747, -27.1325
7.500000, 70.068, -27.0037
7.620000, 70.415, -27.3078
7.750000, 70.723, -28.0236
7.880000, 70.960, -29.1173
8.000000, 71.127, -30.2869
8.120000, 71.251, -31.4922
8.250000, 71.336, -32.8599
8.380000, 71.383, -34.2031
8.500000, 71.401, -35.3512
8.620000, 71.396, -36.4232
8.750000, 71.375, -37.4731
8.850000, 71.353, -38.1763
9.000000, 71.313, -39.0644
9.120000, 71.281, -39.6376
9.250000, 71.253, -40.1106
9.380000, 71.233, -40.4311
9.500000, 71.230, -40.6118
9.620000, 71.243, -40.6772
9.750000, 71.278, -40.6351
9.880000, 71.332, -40.5232
10.000000, 71.400, -40.3653
10.150000, 71.510, -40.1710
10.300000, 71.651, -40.0228
10.440000, 71.810, -39.9514
10.600000, 72.018, -40.0106
10.750000, 72.230, -40.2504
10.900000, 72.451, -40.6527
11.060000, 72.679, -41.2870
11.200000, 72.865, -42.0095
11.380000, 73.072, -43.0121
11.500000, 73.184, -43.6988
11.720000, 73.338, -44.8526
11.800000, 73.379, -45.1994
12.060000, 73.471, -45.9960
12.200000, 73.509, -46.1657
12.410000, 73.572, -46.0264
12.500000, 73.608, -45.8316
12.650000, 73.687, -45.3526
12.800000, 73.793, -44.7672
13.150000, 74.165, -43.4598
13.200000, 74.229, -43.3270
13.400000, 74.498, -42.9634
13.600000, 74.764, -42.8844
13.800000, 75.004, -43.0631
14.000000, 75.201, -43.3821
14.300000, 75.403, -43.9337
14.500000, 75.484, -44.1023
14.750000, 75.556, -43.9413
15.000000, 75.636, -43.3486
15.250000, 75.772, -42.5125
15.500000, 75.973, -41.6442
15.750000, 76.229, -40.9978
16.000000, 76.509, -40.7583
16.250000, 76.776, -40.9927
16.500000, 76.999, -41.5610
16.750000, 77.160, -42.2908
17.000000, 77.262, -42.9877
17.250000, 77.315, -43.5163
17.500000, 77.344, -43.7329
17.750000, 77.374, -43.6022
18.000000, 77.432, -43.1799
18.250000, 77.537, -42.6059
18.500000, 77.694, -42.0182
18.750000, 77.897, -41.5583
19.000000, 78.130, -41.3269
19.250000, 78.375, -41.3887
19.500000, 78.612, -41.6935
19.750000, 78.826, -42.1762
20.000000, 79.012, -42.7458
20.299999, 79.195, -43.4419
20.600000, 79.347, -43.9948
20.900000, 79.486, -44.3349
21.200001, 79.632, -44.4911
21.400000, 79.739, -44.5263
21.799999, 79.983, -44.5511
22.000000, 80.115, -44.5949
22.400000, 80.382, -44.8314
22.700001, 80.571, -45.0841
23.000000, 80.745, -45.3424
23.299999, 80.906, -45.5699
23.600000, 81.062, -45.7159
24.000000, 81.275, -45.7885
24.299999, 81.445, -45.8106
24.700001, 81.686, -45.8538
25.000000, 81.873, -45.9394
25.400000, 82.121, -46.1742
25.799999, 82.356, -46.4967
26.200001, 82.572, -46.8469
26.500000, 82.723, -47.0846
26.900000, 82.920, -47.3368
27.200001, 83.069, -47.5042
27.600000, 83.268, -47.7444
28.000000, 83.453, -48.0024
28.500000, 83.651, -48.1968
29.000000, 83.842, -47.9608
29.500000, 84.110, -47.3922
30.000000, 84.486, -47.1314
30.400000, 84.808, -47.5708
30.700001, 85.012, -48.2671
31.100000, 85.194, -49.4042
31.500000, 85.271, -50.3438
32.000000, 85.301, -50.6737
32.500000, 85.388, -50.1588
33.000000, 85.595, -49.4811
33.500000, 85.859, -49.2523
34.000000, 86.097, -49.4003
34.500000, 86.295, -49.5623
35.000000, 86.493, -49.5812
35.500000, 86.714, -49.6254
36.000000, 86.941, -49.8567
36.500000, 87.145, -50.2432
37.000000, 87.324, -50.6428
37.500000, 87.491, -50.9897
38.200001, 87.719, -51.3664
38.700001, 87.885, -51.5267
39.500000, 88.203, -51.6908
40.000000, 88.437, -51.9943
40.599998, 88.699, -52.7008
41.200001, 88.898, -53.4431
41.799999, 89.064, -53.8295
42.500000, 89.293, -53.9060
43.099998, 89.518, -53.9723
43.700001, 89.733, -54.0494
44.400002, 89.982, -53.9939
45.000000, 90.213, -53.9442
45.500000, 90.406, -54.0177
46.200001, 90.651, -54.2284
46.799999, 90.850, -54.4189
47.500000, 91.083, -54.7533
48.200001, 91.295, -55.2869
48.700001, 91.425, -55.6749
49.400002, 91.601, -56.0444
50.000000, 91.781, -56.2600
50.799999, 92.056, -56.7231
51.500000, 92.282, -57.2133
52.200001, 92.507, -57.4994
53.000000, 92.801, -57.7697
53.799999, 93.073, -58.1656
54.500000, 93.281, -58.3322
55.200001, 93.489, -58.4499
56.000000, 93.664, -58.5432
57.000000, 93.880, -57.5068
58.000000, 94.357, -56.9115
59.000000, 94.730, -58.1105
60.000000, 95.008, -59.0689
60.799999, 95.268, -60.1597
61.500000, 95.430, -61.3657
62.200001, 95.557, -62.2425
63.000000, 95.738, -62.8729
64.000000, 96.007, -63.5303
65.000000, 96.319, -64.0694
66.000000, 96.649, -64.8244
67.000000, 96.924, -65.6911
68.000000, 97.154, -66.2857
69.000000, 97.391, -66.5899
70.000000, 97.661, -66.7927
71.000000, 97.976, -67.1728
72.000000, 98.290, -67.9342
73.000000, 98.576, -68.7551
74.000000, 98.870, -69.5527
75.000000, 99.161, -70.5160
76.199997, 99.470, -71.7225
77.500000, 99.787, -72.8066
78.800003, 100.134, -73.8481
80.000000, 100.467, -74.9635
81.199997, 100.809, -76.1845
82.500000, 101.182, -77.6268
83.800003, 101.548, -79.1277
85.000000, 101.871, -80.5336
86.199997, 102.176, -81.9782
87.500000, 102.476, -83.6049
88.500000, 102.686, -84.7971
90.000000, 103.043, -86.4610
91.199997, 103.365, -88.1844
92.500000, 103.688, -90.2824
93.800003, 104.008, -92.3504
95.000000, 104.300, -94.2923
96.199997, 104.578, -96.2868
97.500000, 104.861, -98.4925
98.800003, 105.135, -100.8157
100.000000, 105.378, -103.1451
101.500000, 105.652, -106.2872
103.000000, 105.893, -109.4793
104.400002, 106.087, -112.4875
106.000000, 106.264, -115.9002
107.500000, 106.388, -119.1005
109.000000, 106.482, -122.3072
110.599998, 106.556, -125.7013
112.000000, 106.602, -128.5474
113.800003, 106.639, -131.9155
115.000000, 106.657, -134.0346
117.199997, 106.654, -137.9930
118.000000, 106.639, -139.4622
120.599998, 106.614, -144.0449
122.000000, 106.633, -146.7170
124.099998, 106.607, -150.6076
125.000000, 106.586, -152.1409
126.500000, 106.540, -154.6351
128.000000, 106.469, -157.1384
131.500000, 106.222, -162.8307
132.000000, 106.181, -163.6021
134.000000, 106.015, -166.5464
136.000000, 105.841, -169.3134
138.000000, 105.647, -171.9818
140.000000, 105.419, -174.4492
143.000000, 105.058, -177.5728
145.000000, 104.823, -179.3973
147.500000, 104.539, 178.5007
150.000000, 104.254, 176.5700
152.500000, 103.966, 174.8609
155.000000, 103.685, 173.2778
157.500000, 103.410, 171.8759
160.000000, 103.143, 170.7452
162.500000, 102.891, 169.7446
165.000000, 102.630, 168.6147
167.500000, 102.370, 167.5669
170.000000, 102.125, 166.7389
172.500000, 101.886, 166.1993
175.000000, 101.652, 165.6995
177.500000, 101.427, 165.2047
180.000000, 101.225, 164.6622
182.500000, 101.018, 164.1567
185.000000, 100.808, 163.8085
187.500000, 100.613, 163.5150
190.000000, 100.443, 163.1555
192.500000, 100.276, 162.8118
195.000000, 100.103, 162.5840
197.500000, 99.928, 162.3868
200.000000, 99.758, 162.1254
203.000000, 99.564, 161.8837
206.000000, 99.388, 161.7924
209.000000, 99.216, 161.7047
212.000000, 99.041, 161.6055
214.000000, 98.924, 161.5656
218.000000, 98.705, 161.5064
220.000000, 98.606, 161.4766
224.000000, 98.413, 161.4866
227.000000, 98.265, 161.5240
230.000000, 98.113, 161.5255
233.000000, 97.963, 161.5348
236.000000, 97.818, 161.5005
240.000000, 97.631, 161.4130
243.000000, 97.496, 161.5969
247.000000, 97.323, 161.9263
250.000000, 97.192, 162.1326
254.000000, 97.039, 162.4249
258.000000, 96.886, 162.8329
262.000000, 96.699, 163.2398
265.000000, 96.564, 163.5746
269.000000, 96.408, 163.9196
272.000000, 96.280, 164.1985
276.000000, 96.124, 164.7783
280.000000, 95.998, 165.4247
285.000000, 95.842, 166.4553
290.000000, 95.693, 167.8896
295.000000, 95.613, 169.5829
300.000000, 95.679, 171.1008
304.000000, 95.822, 171.9057
307.000000, 95.948, 172.0175
311.000000, 96.076, 171.3898
315.000000, 96.099, 170.3307
320.000000, 96.004, 169.0983
325.000000, 95.844, 168.2987
330.000000, 95.680, 168.0876
335.000000, 95.515, 168.1522
340.000000, 95.350, 168.2998
345.000000, 95.190, 168.5015
350.000000, 95.043, 168.7617
355.000000, 94.916, 168.9915
360.000000, 94.799, 169.2341
365.000000, 94.671, 169.7020
370.000000, 94.542, 170.2158
375.000000, 94.423, 170.6685
382.000000, 94.248, 171.1315
387.000000, 94.117, 171.5236
395.000000, 93.919, 172.3716
400.000000, 93.810, 172.9336
406.000000, 93.685, 173.6469
412.000000, 93.526, 174.3012
418.000000, 93.394, 175.0262
425.000000, 93.274, 176.1191
431.000000, 93.192, 176.8774
437.000000, 93.120, 177.4799
444.000000, 93.034, 178.1678
450.000000, 92.949, 178.6487
455.000000, 92.860, 179.0877
462.000000, 92.744, 179.7797
468.000000, 92.646, -179.7567
475.000000, 92.510, -179.3696
482.000000, 92.346, -178.9422
487.000000, 92.231, -178.5147
494.000000, 92.095, -177.7298
500.000000, 91.976, -177.0510
508.000000, 91.790, -176.2666
515.000000, 91.611, -175.5241
522.000000, 91.424, -174.6363
530.000000, 91.200, -173.4959
538.000000, 90.986, -172.2744
545.000000, 90.803, -171.1950
552.000000, 90.603, -170.0376
560.000000, 90.364, -168.2764
570.000000, 90.067, -165.9851
580.000000, 89.779, -164.0474
590.000000, 89.534, -161.7200
600.000000, 89.255, -159.2458
608.000000, 89.018, -156.8719
615.000000, 88.806, -154.5644
622.000000, 88.602, -152.2686
630.000000, 88.337, -149.5681
640.000000, 88.007, -145.8044
650.000000, 87.737, -141.4161
660.000000, 87.505, -136.3250
670.000000, 87.357, -130.6608
680.000000, 87.243, -124.6921
690.000000, 87.156, -118.2611
700.000000, 87.288, -110.8686
710.000000, 87.661, -103.7719
720.000000, 88.119, -97.0432
730.000000, 88.752, -90.4050
740.000000, 89.558, -84.8342
750.000000, 90.386, -80.4279
762.000000, 91.305, -75.9655
775.000000, 92.533, -71.0058
788.000000, 93.844, -68.6941
800.000000, 94.839, -67.9643
812.000000, 95.753, -66.6770
825.000000, 96.858, -65.5712
838.000000, 97.965, -65.6378
850.000000, 98.934, -66.3312
862.000000, 99.917, -67.6112
875.000000, 100.924, -70.1368
885.000000, 101.615, -72.6770
900.000000, 102.491, -77.1492
912.000000, 103.064, -80.8715
925.000000, 103.571, -85.0149
938.000000, 103.951, -89.1503
950.000000, 104.209, -92.8868
962.000000, 104.383, -96.5328
975.000000, 104.472, -100.1067
988.000000, 104.499, -103.1112
1000.000000, 104.504, -105.5193
1015.000000, 104.485, -108.0589
1030.000000, 104.468, -110.1207
1044.000000, 104.472, -111.7763
1060.000000, 104.495, -113.6569
1075.000000, 104.485, -115.4423
1090.000000, 104.452, -116.9438
1106.000000, 104.425, -118.3431
1120.000000, 104.385, -119.4382
1138.000000, 104.328, -120.4820
1150.000000, 104.303, -121.0417
1172.000000, 104.267, -121.8872
1180.000000, 104.258, -122.1257
1206.000000, 104.244, -122.7326
1220.000000, 104.237, -122.9112
1241.000000, 104.268, -122.9802
1250.000000, 104.294, -123.0269
1265.000000, 104.342, -123.1372
1280.000000, 104.392, -123.2384
1315.000000, 104.510, -123.3056
1320.000000, 104.529, -123.3005
1340.000000, 104.598, -123.2587
1360.000000, 104.663, -123.0875
1380.000000, 104.750, -122.9511
1400.000000, 104.862, -122.8671
1430.000000, 105.056, -122.6526
1450.000000, 105.218, -122.5900
1475.000000, 105.419, -122.6866
1500.000000, 105.604, -122.9972
1525.000000, 105.753, -123.1836
1550.000000, 105.926, -123.2965
1575.000000, 106.079, -123.6049
1600.000000, 106.211, -123.4290
1625.000000, 106.443, -123.1075
1650.000000, 106.680, -123.2063
1675.000000, 106.939, -123.2561
1700.000000, 107.240, -123.6414
1725.000000, 107.515, -124.5370
1750.000000, 107.732, -125.3642
1775.000000, 107.963, -126.0361
1800.000000, 108.201, -126.8215
1825.000000, 108.458, -127.5294
1850.000000, 108.768, -128.5396
1875.000000, 109.061, -130.1794
1900.000000, 109.280, -132.0367
1925.000000, 109.464, -133.7064
1950.000000, 109.656, -135.3692
1975.000000, 109.837, -137.1651
2000.000000, 110.025, -139.1175
2030.000000, 110.218, -141.8266
2060.000000, 110.341, -144.8353
2090.000000, 110.400, -147.7099
2120.000000, 110.421, -150.6233
2140.000000, 110.414, -152.6374
2180.000000, 110.281, -156.6832
2200.000000, 110.166, -158.3966
2240.000000, 109.901, -161.3686
2270.000000, 109.692, -162.9884
2300.000000, 109.554, -164.4240
2330.000000, 109.416, -166.2188
2360.000000, 109.247, -167.8827
2400.000000, 108.979, -170.3582
2430.000000, 108.709, -171.7176
2470.000000, 108.392, -173.2587
2500.000000, 108.126, -174.2737
2540.000000, 107.787, -175.3755
2580.000000, 107.383, -176.1558
2620.000000, 106.978, -175.9746
2650.000000, 106.720, -175.0646
2690.000000, 106.645, -173.2334
2720.000000, 106.749, -173.1112
2760.000000, 106.696, -174.4789
2800.000000, 106.391, -174.3471
2850.000000, 106.541, -170.5511
2900.000000, 107.480, -171.5580
2950.000000, 107.886, -178.0145
3000.000000, 107.690, 176.2297
3040.000000, 107.430, 173.0518
3070.000000, 107.253, 171.1833
3110.000000, 107.102, 169.1913
3150.000000, 107.091, 167.1067
3200.000000, 107.290, 163.6310
3250.000000, 107.620, 157.9839
3300.000000, 107.930, 149.4982
3350.000000, 107.836, 137.6266
3400.000000, 107.016, 124.9069
3450.000000, 106.250, 115.6878
3500.000000, 106.253, 106.3845
3550.000000, 106.563, 93.0352
3600.000000, 106.754, 75.9694
3650.000000, 106.617, 56.4601
3700.000000, 106.096, 36.1943
3750.000000, 105.253, 17.0500
3820.000000, 103.807, -5.2228
3870.000000, 102.794, -16.9725
3950.000000, 101.521, -28.4383
4000.000000, 101.063, -31.7725
4060.000000, 100.877, -32.8032
4120.000000, 101.202, -30.7844
4180.000000, 102.269, -28.0144
4250.000000, 104.174, -28.1383
4310.000000, 105.961, -32.4652
4370.000000, 107.504, -41.1656
4440.000000, 108.338, -55.3486
4500.000000, 108.047, -65.5413
4550.000000, 107.740, -70.1115
4620.000000, 107.664, -77.0795
4680.000000, 107.148, -83.9679
4750.000000, 105.982, -86.8364
4820.000000, 105.209, -83.9789
4870.000000, 105.013, -81.9718
4940.000000, 104.992, -78.4055
5000.000000, 105.527, -75.6873
5080.000000, 106.254, -79.0209
5150.000000, 106.010, -83.0917
5220.000000, 105.581, -82.9828
5300.000000, 105.381, -81.8530
5380.000000, 105.249, -79.0570
5450.000000, 105.637, -75.3378
5520.000000, 106.295, -75.2226
5600.000000, 106.614, -77.8328
5700.000000, 106.575, -79.0943
5800.000000, 106.680, -77.1865
5900.000000, 107.542, -75.4019
6000.000000, 108.459, -80.4590
6080.000000, 108.484, -86.7643
6150.000000, 108.031, -90.7148
6220.000000, 107.394, -91.8180
6300.000000, 106.879, -89.5861
6400.000000, 106.929, -86.0905
6500.000000, 107.255, -85.4578
6600.000000, 107.449, -85.9192
6700.000000, 107.655, -86.2825
6800.000000, 107.912, -87.5369
6900.000000, 108.071, -89.6342
7000.000000, 108.116, -91.6545
7100.000000, 108.100, -93.2461
7200.000000, 108.118, -94.4095
7300.000000, 108.218, -96.0267
7400.000000, 108.237, -98.8131
7500.000000, 108.030, -101.8719
7620.000000, 107.546, -104.5331
7750.000000, 106.895, -105.3315
7880.000000, 106.279, -103.2199
8000.000000, 106.119, -99.9790
8120.000000, 106.308, -98.8781
8250.000000, 106.395, -100.3333
8380.000000, 106.232, -102.2361
8500.000000, 105.940, -103.3969
8620.000000, 105.690, -103.4919
8750.000000, 105.648, -103.9935
8850.000000, 105.659, -105.9035
9000.000000, 105.364, -110.4386
9120.000000, 104.878, -113.5393
9250.000000, 104.436, -116.5046
9380.000000, 104.002, -121.7018
9500.000000, 103.196, -128.0663
9620.000000, 101.872, -133.8863
9750.000000, 99.890, -137.6344
9880.000000, 97.526, -136.4624
10000.000000, 95.404, -129.6541
10150.000000, 93.560, -116.6833
10300.000000, 92.635, -104.7946
10440.000000, 92.151, -95.3879
10600.000000, 91.899, -85.8634
10750.000000, 91.888, -78.9695
10900.000000, 91.901, -74.2994
11060.000000, 91.750, -71.1650
11200.000000, 91.365, -68.4861
11380.000000, 90.733, -63.8668
11500.000000, 90.234, -59.9374
11720.000000, 89.734, -47.2186
11800.000000, 90.026, -42.1986
12060.000000, 91.831, -40.2423
12200.000000, 92.333, -47.9191
12410.000000, 91.674, -68.5197
12500.000000, 90.606, -80.3423
12650.000000, 87.706, -103.6425
12800.000000, 85.052, 123.1592
13150.000000, 87.681, 55.1714
13200.000000, 88.029, 53.2178
13400.000000, 89.101, 50.6790
13600.000000, 90.140, 51.0718
13800.000000, 90.914, 51.1778
14000.000000, 91.620, 52.4092
14300.000000, 92.890, 50.6050
14500.000000, 93.219, 45.0987
14750.000000, 92.507, 37.9704
15000.000000, 90.851, 36.1027
15250.000000, 89.066, 41.7928
15500.000000, 87.899, 52.7390
15750.000000, 87.609, 64.6542
16000.000000, 87.951, 75.1875
16250.000000, 88.734, 83.1531
16500.000000, 89.834, 87.9191
16750.000000, 91.020, 87.7647
17000.000000, 91.731, 82.5471
17250.000000, 91.573, 75.2776
17500.000000, 90.527, 70.0177
17750.000000, 88.928, 70.2388
18000.000000, 87.398, 77.1403
18250.000000, 86.593, 88.9716
18500.000000, 86.784, 100.3475
18750.000000, 87.467, 106.9968
19000.000000, 88.014, 108.6627
19250.000000, 87.979, 107.2371
19500.000000, 87.228, 105.4055
19750.000000, 85.841, 105.0916
20000.000000, 83.946, 107.5645
20300.000000, 81.332, 114.8265
20600.000000, 78.864, 124.7729
20900.000000, 76.604, 135.1104
21200.000000, 74.488, 143.7725
21400.000000, 72.952, 147.5881
21800.000000, 68.915, 153.0641
22000.000000, 66.154, 156.3069
22400.000000, 58.488, 164.3077
22700.000000, 51.266, 169.1526
23000.000000, 44.263, 167.8469
23300.000000, 40.298, -138.9381
23600.000000, 39.106, -100.0977
24000.000000, 38.426, 63.5424
