* Measurement data measured by REW V5.31
* Source: Headset (DS by VECLAN.COM), MICROPHONE (Master Volume), L, volume: 1.000. Timing signal peak level -7.5 dBFS, measurement signal peak level -6.0 dBFS
* Format: 2M Log Swept Sine, 1 sweep at -7.1 dBFS using an acoustic timing reference
* Dated: Apr 14, 2024 6:10:19 PM
* REW Settings:
*  C-weighting compensation: Off
*  Target level: 85.0 dB
* Note: ; Delay -0.0742 ms (-25 mm, -1 in) using estimated IR delay relative to Acoustic reference played from HEADPHONE L with no timing offset
* Measurement: Pink headset L5
* Smoothing: 1/24 octave
* Frequency Step: 1/48 octave
* Start Frequency: 1.000 Hz
*
* Freq(Hz), SPL(dB), Phase(degrees)
1.000000, 70.144, 20.2961
1.015000, 70.142, 20.5230
1.030000, 70.140, 20.7483
1.044000, 70.137, 20.9573
1.060000, 70.134, 21.1946
1.075000, 70.130, 21.4158
1.090000, 70.127, 21.6359
1.106000, 70.123, 21.8695
1.120000, 70.121, 22.0731
1.138000, 70.117, 22.3336
1.150000, 70.112, 22.5064
1.172000, 70.102, 22.8144
1.180000, 70.098, 22.9190
1.206000, 70.082, 23.2563
1.220000, 70.072, 23.4356
1.241000, 70.056, 23.7012
1.250000, 70.049, 23.8137
1.265000, 70.037, 23.9993
1.280000, 70.025, 24.1824
1.315000, 69.996, 24.5986
1.320000, 69.992, 24.6568
1.340000, 69.977, 24.8857
1.360000, 69.963, 25.1097
1.380000, 69.951, 25.2892
1.400000, 69.940, 25.4473
1.430000, 69.928, 25.6705
1.450000, 69.918, 25.8093
1.475000, 69.859, 25.9706
1.500000, 69.726, 26.1185
1.525000, 69.560, 26.2536
1.550000, 69.370, 26.3765
1.575000, 69.161, 26.4664
1.600000, 68.936, 26.5069
1.625000, 68.700, 26.5375
1.650000, 68.455, 26.5591
1.675000, 68.206, 26.5721
1.700000, 67.955, 26.5774
1.725000, 67.707, 26.5756
1.750000, 67.465, 26.5675
1.775000, 67.232, 26.5368
1.800000, 67.013, 26.4680
1.825000, 66.810, 26.3952
1.850000, 66.619, 26.3159
1.875000, 66.435, 26.2282
1.900000, 66.257, 26.1314
1.925000, 66.082, 26.0259
1.950000, 65.911, 25.9126
1.975000, 65.743, 25.7752
2.000000, 65.580, 25.5981
2.030000, 65.389, 25.3786
2.060000, 65.202, 25.1507
2.090000, 65.021, 24.9153
2.120000, 64.844, 24.6737
2.140000, 64.729, 24.5098
2.180000, 64.505, 24.1560
2.200000, 64.396, 23.9574
2.240000, 64.183, 23.5560
2.270000, 64.029, 23.2500
2.300000, 63.879, 22.9393
2.330000, 63.734, 22.6234
2.360000, 63.594, 22.3020
2.400000, 63.415, 21.8171
2.430000, 63.287, 21.4409
2.470000, 63.125, 20.9324
2.500000, 63.011, 20.5468
2.540000, 62.867, 20.0291
2.580000, 62.733, 19.4947
2.620000, 62.609, 18.9343
2.650000, 62.523, 18.5230
2.690000, 62.417, 17.9816
2.720000, 62.343, 17.5781
2.760000, 62.254, 17.0409
2.800000, 62.175, 16.4591
2.850000, 62.090, 15.7135
2.900000, 62.022, 14.9508
2.950000, 61.969, 14.1818
3.000000, 61.935, 13.4070
3.040000, 61.920, 12.7980
3.070000, 61.915, 12.3495
3.110000, 61.917, 11.7556
3.150000, 61.928, 11.1588
3.200000, 61.954, 10.3661
3.250000, 61.992, 9.5295
3.300000, 62.042, 8.6623
3.350000, 62.106, 7.7943
3.400000, 62.185, 6.9137
3.450000, 62.278, 6.0344
3.500000, 62.381, 5.1580
3.550000, 62.492, 4.2720
3.600000, 62.609, 3.3372
3.650000, 62.729, 2.3602
3.700000, 62.854, 1.3602
3.750000, 62.986, 0.3577
3.820000, 63.183, -1.0714
3.870000, 63.329, -2.0939
3.950000, 63.565, -3.7304
4.000000, 63.710, -4.7847
4.060000, 63.882, -6.0806
4.120000, 64.055, -7.3936
4.180000, 64.229, -8.7138
4.250000, 64.430, -10.2672
4.310000, 64.597, -11.5696
4.370000, 64.757, -12.8496
4.440000, 64.934, -14.3650
4.500000, 65.079, -15.6724
4.550000, 65.196, -16.7562
4.620000, 65.352, -18.2660
4.680000, 65.478, -19.5133
4.750000, 65.615, -20.8935
4.820000, 65.741, -22.2448
4.870000, 65.825, -23.2019
4.940000, 65.933, -24.5098
5.000000, 66.018, -25.5933
5.080000, 66.123, -26.9390
5.150000, 66.204, -28.0021
5.220000, 66.276, -29.0130
5.300000, 66.347, -30.1009
5.380000, 66.410, -31.0872
5.450000, 66.462, -31.8584
5.520000, 66.513, -32.5120
5.600000, 66.567, -33.1454
5.700000, 66.630, -33.7994
5.800000, 66.699, -34.2990
5.900000, 66.780, -34.6467
6.000000, 66.873, -34.8249
6.080000, 66.955, -34.8924
6.150000, 67.036, -34.9130
6.220000, 67.126, -34.9305
6.300000, 67.243, -34.9208
6.400000, 67.406, -34.8642
6.500000, 67.584, -34.8297
6.600000, 67.774, -34.8692
6.700000, 67.975, -34.9879
6.800000, 68.186, -35.1613
6.900000, 68.399, -35.4229
7.000000, 68.607, -35.7853
7.100000, 68.811, -36.2468
7.200000, 69.010, -36.7724
7.300000, 69.196, -37.3506
7.400000, 69.368, -37.9780
7.500000, 69.525, -38.6603
7.620000, 69.696, -39.4817
7.750000, 69.857, -40.3255
7.880000, 69.992, -41.1407
8.000000, 70.100, -41.8140
8.120000, 70.195, -42.3735
8.250000, 70.286, -42.8618
8.380000, 70.372, -43.2213
8.500000, 70.454, -43.4273
8.620000, 70.540, -43.5188
8.750000, 70.644, -43.5325
8.850000, 70.734, -43.4982
9.000000, 70.888, -43.3798
9.120000, 71.024, -43.2872
9.250000, 71.186, -43.2278
9.380000, 71.361, -43.2087
9.500000, 71.526, -43.2565
9.620000, 71.693, -43.3759
9.750000, 71.872, -43.5758
9.880000, 72.038, -43.8391
10.000000, 72.173, -44.1262
10.150000, 72.320, -44.5591
10.300000, 72.444, -44.9775
10.440000, 72.540, -45.3409
10.600000, 72.636, -45.6881
10.750000, 72.718, -45.9169
10.900000, 72.797, -46.0536
11.060000, 72.886, -46.1181
11.200000, 72.970, -46.1283
11.380000, 73.089, -46.0644
11.500000, 73.176, -45.9867
11.720000, 73.353, -45.8243
11.800000, 73.423, -45.7732
12.060000, 73.666, -45.6833
12.200000, 73.803, -45.7268
12.410000, 74.007, -45.8469
12.500000, 74.092, -45.9125
12.650000, 74.226, -46.0344
12.800000, 74.354, -46.1540
13.150000, 74.631, -46.4067
13.200000, 74.669, -46.4383
13.400000, 74.821, -46.5217
13.600000, 74.974, -46.5413
13.800000, 75.132, -46.5074
14.000000, 75.295, -46.4501
14.300000, 75.552, -46.4354
14.500000, 75.727, -46.4484
14.750000, 75.945, -46.4991
15.000000, 76.162, -46.5928
15.250000, 76.381, -46.7789
15.500000, 76.597, -47.0018
15.750000, 76.806, -47.2647
16.000000, 77.008, -47.5803
16.250000, 77.200, -48.0015
16.500000, 77.377, -48.4759
16.750000, 77.532, -48.9767
17.000000, 77.664, -49.4594
17.250000, 77.774, -49.8944
17.500000, 77.865, -50.1974
17.750000, 77.947, -50.3255
18.000000, 78.032, -50.2762
18.250000, 78.132, -50.0999
18.500000, 78.255, -49.8403
18.750000, 78.403, -49.5731
19.000000, 78.573, -49.3696
19.250000, 78.755, -49.3025
19.500000, 78.940, -49.3547
19.750000, 79.116, -49.5053
20.000000, 79.280, -49.7129
20.299999, 79.460, -50.0029
20.600000, 79.626, -50.2472
20.900000, 79.787, -50.4202
21.200001, 79.949, -50.5522
21.400000, 80.059, -50.6292
21.799999, 80.283, -50.7807
22.000000, 80.394, -50.8655
22.400000, 80.610, -51.0718
22.700001, 80.764, -51.2009
23.000000, 80.914, -51.2843
23.299999, 81.064, -51.3330
23.600000, 81.217, -51.3381
24.000000, 81.429, -51.3107
24.299999, 81.593, -51.3056
24.700001, 81.813, -51.3045
25.000000, 81.978, -51.2999
25.400000, 82.202, -51.3102
25.799999, 82.435, -51.3485
26.200001, 82.675, -51.4936
26.500000, 82.852, -51.7046
26.900000, 83.071, -52.0969
27.200001, 83.216, -52.4302
27.600000, 83.382, -52.8163
28.000000, 83.532, -53.0385
28.500000, 83.729, -53.0911
29.000000, 83.958, -53.0367
29.500000, 84.212, -53.0717
30.000000, 84.470, -53.2192
30.400000, 84.673, -53.3946
30.700001, 84.827, -53.5471
31.100000, 85.032, -53.8072
31.500000, 85.232, -54.1673
32.000000, 85.453, -54.6948
32.500000, 85.635, -55.1496
33.000000, 85.797, -55.3349
33.500000, 85.977, -55.2644
34.000000, 86.195, -55.1170
34.500000, 86.438, -55.0932
35.000000, 86.680, -55.2281
35.500000, 86.909, -55.4578
36.000000, 87.124, -55.7105
36.500000, 87.329, -55.9730
37.000000, 87.525, -56.2330
37.500000, 87.712, -56.4736
38.200001, 87.969, -56.7446
38.700001, 88.155, -56.9270
39.500000, 88.454, -57.2680
40.000000, 88.638, -57.5112
40.599998, 88.853, -57.8268
41.200001, 89.062, -58.1378
41.799999, 89.265, -58.4194
42.500000, 89.504, -58.7121
43.099998, 89.713, -58.9760
43.700001, 89.918, -59.2748
44.400002, 90.144, -59.6092
45.000000, 90.333, -59.8244
45.500000, 90.497, -59.9675
46.200001, 90.738, -60.2104
46.799999, 90.943, -60.5115
47.500000, 91.165, -60.8604
48.200001, 91.391, -61.0968
48.700001, 91.567, -61.2882
49.400002, 91.809, -61.7209
50.000000, 91.986, -62.0996
50.799999, 92.218, -62.2554
51.500000, 92.481, -62.3129
52.200001, 92.764, -62.7615
53.000000, 93.024, -63.5379
53.799999, 93.240, -64.0763
54.500000, 93.445, -64.3966
55.200001, 93.659, -64.7692
56.000000, 93.899, -65.2490
57.000000, 94.195, -65.8575
58.000000, 94.494, -66.4987
59.000000, 94.789, -67.2087
60.000000, 95.077, -67.8892
60.799999, 95.315, -68.4061
61.500000, 95.525, -68.9160
62.200001, 95.728, -69.4483
63.000000, 95.956, -70.0284
64.000000, 96.245, -70.7808
65.000000, 96.523, -71.5948
66.000000, 96.793, -72.4127
67.000000, 97.054, -73.2438
68.000000, 97.310, -74.0284
69.000000, 97.573, -74.8070
70.000000, 97.837, -75.6439
71.000000, 98.100, -76.5028
72.000000, 98.367, -77.4139
73.000000, 98.631, -78.3868
74.000000, 98.890, -79.3972
75.000000, 99.144, -80.4316
76.199997, 99.444, -81.7188
77.500000, 99.755, -83.1715
78.800003, 100.050, -84.5986
80.000000, 100.319, -85.9225
81.199997, 100.583, -87.2739
82.500000, 100.863, -88.7565
83.800003, 101.143, -90.2266
85.000000, 101.409, -91.6044
86.199997, 101.684, -93.0376
87.500000, 101.989, -94.6959
88.500000, 102.224, -96.0667
90.000000, 102.566, -98.2982
91.199997, 102.824, -100.2013
92.500000, 103.089, -102.3621
93.800003, 103.335, -104.6241
95.000000, 103.544, -106.7785
96.199997, 103.736, -108.9746
97.500000, 103.925, -111.3835
98.800003, 104.095, -113.8202
100.000000, 104.235, -116.0815
101.500000, 104.388, -118.9206
103.000000, 104.517, -121.7656
104.400002, 104.614, -124.4197
106.000000, 104.695, -127.4103
107.500000, 104.743, -130.1121
109.000000, 104.771, -132.6687
110.599998, 104.792, -135.2419
112.000000, 104.807, -137.3860
113.800003, 104.830, -140.0560
115.000000, 104.848, -141.8382
117.199997, 104.879, -145.1758
118.000000, 104.888, -146.4190
120.599998, 104.891, -150.5069
122.000000, 104.878, -152.7136
124.099998, 104.833, -155.9920
125.000000, 104.804, -157.3753
126.500000, 104.746, -159.6313
128.000000, 104.675, -161.8337
131.500000, 104.467, -166.6743
132.000000, 104.432, -167.3258
134.000000, 104.287, -169.8383
136.000000, 104.128, -172.2274
138.000000, 103.956, -174.4803
140.000000, 103.774, -176.5723
143.000000, 103.491, -179.3810
145.000000, 103.300, 178.9288
147.500000, 103.060, 176.9608
150.000000, 102.819, 175.1633
152.500000, 102.577, 173.5249
155.000000, 102.331, 172.0280
157.500000, 102.087, 170.6619
160.000000, 101.850, 169.4410
162.500000, 101.618, 168.3795
165.000000, 101.383, 167.4180
167.500000, 101.153, 166.5334
170.000000, 100.934, 165.6900
172.500000, 100.720, 164.9480
175.000000, 100.509, 164.3070
177.500000, 100.303, 163.7398
180.000000, 100.103, 163.2285
182.500000, 99.909, 162.7543
185.000000, 99.720, 162.3443
187.500000, 99.536, 161.9754
190.000000, 99.359, 161.6373
192.500000, 99.190, 161.3392
195.000000, 99.025, 161.0773
197.500000, 98.862, 160.8416
200.000000, 98.703, 160.6237
203.000000, 98.521, 160.4180
206.000000, 98.348, 160.2430
209.000000, 98.176, 160.0787
212.000000, 98.008, 159.9305
214.000000, 97.900, 159.8477
218.000000, 97.690, 159.6769
220.000000, 97.587, 159.6080
224.000000, 97.378, 159.4630
227.000000, 97.207, 159.3586
230.000000, 97.028, 159.4048
233.000000, 96.868, 159.6177
236.000000, 96.732, 159.8102
240.000000, 96.557, 159.9498
243.000000, 96.422, 160.0217
247.000000, 96.239, 160.1280
250.000000, 96.101, 160.2616
254.000000, 95.914, 160.4989
258.000000, 95.728, 160.7808
262.000000, 95.542, 161.1204
265.000000, 95.398, 161.4634
269.000000, 95.203, 162.0502
272.000000, 95.061, 162.5977
276.000000, 94.885, 163.5002
280.000000, 94.735, 164.5906
285.000000, 94.600, 166.0663
290.000000, 94.524, 167.6422
295.000000, 94.510, 169.3657
300.000000, 94.634, 171.0715
304.000000, 94.833, 171.6924
307.000000, 94.982, 171.5029
311.000000, 95.111, 170.5714
315.000000, 95.132, 169.3843
320.000000, 95.039, 168.1442
325.000000, 94.881, 167.3830
330.000000, 94.708, 167.0242
335.000000, 94.539, 166.9243
340.000000, 94.378, 166.9648
345.000000, 94.229, 167.0810
350.000000, 94.079, 167.2458
355.000000, 93.928, 167.4624
360.000000, 93.780, 167.8063
365.000000, 93.641, 168.2365
370.000000, 93.514, 168.6888
375.000000, 93.402, 169.1478
382.000000, 93.264, 169.7434
387.000000, 93.164, 170.1351
395.000000, 92.996, 170.6883
400.000000, 92.891, 171.0065
406.000000, 92.760, 171.3790
412.000000, 92.622, 171.7675
418.000000, 92.484, 172.2340
425.000000, 92.320, 172.7754
431.000000, 92.173, 173.2810
437.000000, 92.027, 173.8622
444.000000, 91.864, 174.5662
450.000000, 91.723, 175.1516
455.000000, 91.603, 175.6564
462.000000, 91.433, 176.4100
468.000000, 91.290, 177.1433
475.000000, 91.125, 178.0274
482.000000, 90.963, 178.9043
487.000000, 90.847, 179.5399
494.000000, 90.685, -179.5053
500.000000, 90.547, -178.6574
508.000000, 90.362, -177.4817
515.000000, 90.201, -176.4193
522.000000, 90.048, -175.3046
530.000000, 89.873, -174.0806
538.000000, 89.683, -172.7833
545.000000, 89.520, -171.5342
552.000000, 89.366, -170.1948
560.000000, 89.205, -168.7762
570.000000, 88.963, -167.0808
580.000000, 88.694, -164.9288
590.000000, 88.471, -162.6343
600.000000, 88.228, -160.5849
608.000000, 87.999, -158.7929
615.000000, 87.779, -156.9950
622.000000, 87.556, -154.9066
630.000000, 87.321, -152.3377
640.000000, 87.036, -149.0618
650.000000, 86.739, -145.4490
660.000000, 86.415, -141.4070
670.000000, 86.102, -136.3425
680.000000, 85.886, -130.4463
690.000000, 85.781, -124.0320
700.000000, 85.809, -117.1897
710.000000, 85.993, -109.9740
720.000000, 86.372, -102.6781
730.000000, 86.920, -96.0032
740.000000, 87.575, -90.1152
750.000000, 88.321, -84.6420
762.000000, 89.367, -79.0593
775.000000, 90.553, -74.6657
788.000000, 91.744, -71.7379
800.000000, 92.800, -69.7957
812.000000, 93.884, -68.5293
825.000000, 95.039, -68.4368
838.000000, 96.050, -69.5130
850.000000, 96.909, -70.5569
862.000000, 97.732, -72.1026
875.000000, 98.539, -74.1817
885.000000, 99.126, -76.0660
900.000000, 99.896, -79.5918
912.000000, 100.394, -82.5807
925.000000, 100.854, -85.7554
938.000000, 101.251, -89.0238
950.000000, 101.537, -92.1144
962.000000, 101.743, -95.1067
975.000000, 101.900, -98.0833
988.000000, 102.005, -100.8259
1000.000000, 102.065, -103.1655
1015.000000, 102.086, -105.8240
1030.000000, 102.057, -108.0178
1044.000000, 102.023, -109.6633
1060.000000, 101.985, -111.2238
1075.000000, 101.951, -112.4412
1090.000000, 101.931, -113.4716
1106.000000, 101.922, -114.4732
1120.000000, 101.913, -115.2318
1138.000000, 101.900, -116.0096
1150.000000, 101.896, -116.4391
1172.000000, 101.894, -117.0250
1180.000000, 101.898, -117.2052
1206.000000, 101.916, -117.6560
1220.000000, 101.935, -117.8005
1241.000000, 101.972, -117.9112
1250.000000, 101.996, -117.9022
1265.000000, 102.047, -117.9000
1280.000000, 102.107, -117.9389
1315.000000, 102.209, -118.1034
1320.000000, 102.220, -118.0717
1340.000000, 102.277, -117.8207
1360.000000, 102.347, -117.5448
1380.000000, 102.423, -117.3802
1400.000000, 102.512, -117.1824
1430.000000, 102.668, -116.7367
1450.000000, 102.803, -116.5034
1475.000000, 102.968, -116.2693
1500.000000, 103.150, -116.0916
1525.000000, 103.320, -116.0687
1550.000000, 103.470, -116.0332
1575.000000, 103.604, -115.8418
1600.000000, 103.770, -115.2904
1625.000000, 104.014, -114.9068
1650.000000, 104.255, -114.8457
1675.000000, 104.511, -114.8610
1700.000000, 104.767, -115.1489
1725.000000, 105.006, -115.4819
1750.000000, 105.266, -115.9018
1775.000000, 105.499, -116.6007
1800.000000, 105.720, -117.1592
1825.000000, 105.957, -117.7663
1850.000000, 106.198, -118.4871
1875.000000, 106.446, -119.2313
1900.000000, 106.734, -120.0975
1925.000000, 107.031, -121.4374
1950.000000, 107.302, -123.1567
1975.000000, 107.526, -125.1717
2000.000000, 107.703, -127.3322
2030.000000, 107.857, -129.9730
2060.000000, 107.953, -132.6338
2090.000000, 108.012, -135.2004
2120.000000, 108.031, -137.8845
2140.000000, 108.000, -139.7129
2180.000000, 107.857, -142.7091
2200.000000, 107.781, -144.0310
2240.000000, 107.611, -146.2228
2270.000000, 107.559, -147.7492
2300.000000, 107.483, -149.9601
2330.000000, 107.289, -152.1052
2360.000000, 107.058, -153.6824
2400.000000, 106.749, -155.4196
2430.000000, 106.515, -156.4290
2470.000000, 106.229, -157.5341
2500.000000, 106.015, -158.4189
2540.000000, 105.673, -159.5102
2580.000000, 105.242, -159.8210
2620.000000, 104.858, -158.5748
2650.000000, 104.751, -156.8943
2690.000000, 104.837, -155.8392
2720.000000, 104.813, -156.0311
2760.000000, 104.690, -154.6544
2800.000000, 105.108, -151.7750
2850.000000, 106.166, -154.3622
2900.000000, 106.536, -161.3214
2950.000000, 106.345, -166.8827
3000.000000, 106.074, -171.0223
3040.000000, 105.908, -173.9785
3070.000000, 105.811, -176.2878
3110.000000, 105.700, -179.5419
3150.000000, 105.634, 177.0000
3200.000000, 105.692, 171.6490
3250.000000, 105.814, 162.9914
3300.000000, 105.428, 149.9924
3350.000000, 104.382, 138.2448
3400.000000, 103.621, 129.5318
3450.000000, 103.274, 118.0069
3500.000000, 102.641, 103.1488
3550.000000, 101.661, 87.6087
3600.000000, 100.693, 72.1080
3650.000000, 100.000, 55.6874
3700.000000, 99.474, 38.0663
3750.000000, 98.899, 20.5407
3820.000000, 97.911, 0.2466
3870.000000, 97.257, -9.6363
3950.000000, 96.660, -18.4590
4000.000000, 96.477, -20.7968
4060.000000, 96.488, -19.3743
4120.000000, 97.254, -14.6148
4180.000000, 98.861, -11.2001
4250.000000, 101.214, -13.3416
4310.000000, 103.007, -21.5162
4370.000000, 103.832, -33.7520
4440.000000, 103.430, -43.1971
4500.000000, 103.348, -45.9449
4550.000000, 103.390, -50.1226
4620.000000, 102.761, -53.8074
4680.000000, 102.559, -51.7406
4750.000000, 102.907, -52.7783
4820.000000, 102.710, -55.5689
4870.000000, 102.465, -55.4061
4940.000000, 102.421, -53.5881
5000.000000, 102.633, -52.0522
5080.000000, 103.338, -51.4463
5150.000000, 104.012, -55.9591
5220.000000, 103.920, -63.2007
5300.000000, 102.965, -66.1705
5380.000000, 102.487, -62.9518
5450.000000, 102.519, -63.6064
5520.000000, 101.926, -66.3526
5600.000000, 100.577, -63.3558
5700.000000, 99.694, -49.0579
5800.000000, 100.873, -32.8878
5900.000000, 103.179, -28.7534
6000.000000, 104.445, -34.6180
6080.000000, 104.695, -38.1243
6150.000000, 104.950, -38.9399
6220.000000, 105.419, -40.1656
6300.000000, 105.864, -43.6980
6400.000000, 105.914, -48.8427
6500.000000, 105.611, -51.9279
6600.000000, 105.315, -53.0383
6700.000000, 105.081, -53.3780
6800.000000, 104.907, -52.7375
6900.000000, 104.936, -51.6630
7000.000000, 105.109, -51.1924
7100.000000, 105.334, -51.2997
7200.000000, 105.601, -52.2221
7300.000000, 105.810, -54.3562
7400.000000, 105.805, -57.3955
7500.000000, 105.503, -60.2350
7620.000000, 104.877, -61.2549
7750.000000, 104.401, -58.8277
7880.000000, 104.427, -55.8136
8000.000000, 104.670, -55.8821
8120.000000, 104.642, -58.3060
8250.000000, 104.147, -60.7212
8380.000000, 103.381, -59.9147
8500.000000, 102.982, -56.4341
8620.000000, 102.983, -53.4532
8750.000000, 103.229, -51.4857
8850.000000, 103.584, -51.5106
9000.000000, 104.020, -55.0264
9120.000000, 104.169, -59.7610
9250.000000, 104.047, -66.7676
9380.000000, 103.479, -74.9882
9500.000000, 102.439, -82.7593
9620.000000, 100.834, -88.6918
9750.000000, 98.670, -91.1090
9880.000000, 96.422, -88.9500
10000.000000, 94.553, -83.6190
10150.000000, 92.664, -74.9713
10300.000000, 91.159, -65.6245
10440.000000, 89.909, -56.5609
10600.000000, 88.649, -42.5000
10750.000000, 88.280, -27.4105
10900.000000, 88.480, -16.1011
11060.000000, 88.860, -6.6139
11200.000000, 89.282, -0.3971
11380.000000, 89.554, 5.2743
11500.000000, 89.624, 10.3944
11720.000000, 90.801, 22.9739
11800.000000, 91.696, 25.5829
12060.000000, 94.246, 17.4247
12200.000000, 94.539, 6.4802
12410.000000, 93.221, -11.1036
12500.000000, 92.001, -17.3309
12650.000000, 89.165, -23.0758
12800.000000, 85.613, -20.4082
13150.000000, 78.631, 39.4374
13200.000000, 78.608, 54.5574
13400.000000, 81.553, 99.0750
13600.000000, 84.835, 105.9438
13800.000000, 86.517, 104.5460
14000.000000, 87.578, 106.1006
14300.000000, 89.653, 105.4905
14500.000000, 90.422, 98.1390
14750.000000, 89.926, 86.6575
15000.000000, 87.980, 77.5173
15250.000000, 84.498, 77.3395
15500.000000, 80.869, 104.7484
15750.000000, 81.346, 140.0468
16000.000000, 83.337, 150.9001
16250.000000, 84.550, 153.8552
16500.000000, 85.261, 156.0450
16750.000000, 85.892, 157.8209
17000.000000, 86.425, 157.3743
17250.000000, 86.527, 154.7846
17500.000000, 85.992, 152.9314
17750.000000, 85.154, 154.9954
18000.000000, 84.540, 159.9528
18250.000000, 84.149, 165.5085
18500.000000, 84.039, 172.8012
18750.000000, 84.624, 179.8082
19000.000000, 85.312, -176.9609
19250.000000, 85.423, -174.7450
19500.000000, 85.011, -170.6157
19750.000000, 84.340, -165.5602
20000.000000, 83.333, -161.1369
20300.000000, 81.497, -155.2038
20600.000000, 79.339, -145.9478
20900.000000, 77.351, -135.3921
21200.000000, 75.414, -126.9539
21400.000000, 73.979, -123.0119
21800.000000, 70.276, -119.0608
22000.000000, 67.601, -118.2982
22400.000000, 59.759, -115.9885
22700.000000, 52.086, -112.5463
23000.000000, 43.630, -110.6311
23300.000000, 35.980, -61.5975
23600.000000, 32.249, -62.0248
24000.000000, 31.187, 70.2839
