* Measurement data measured by REW V5.31
* Source: Headset (DS by VECLAN.COM), MICROPHONE (Master Volume), L, volume: 1.000. Timing signal peak level -8.3 dBFS, measurement signal peak level -6.2 dBFS
* Format: 2M Log Swept Sine, 1 sweep at -7.1 dBFS using an acoustic timing reference
* Dated: Apr 14, 2024 6:08:25 PM
* REW Settings:
*  C-weighting compensation: Off
*  Target level: 85.0 dB
* Note: ; Delay -0.0732 ms (-25 mm, -0.99 in) using estimated IR delay relative to Acoustic reference played from HEADPHONE L with no timing offset
* Measurement: Pink headset L2
* Smoothing: 1/24 octave
* Frequency Step: 1/48 octave
* Start Frequency: 1.000 Hz
*
* Freq(Hz), SPL(dB), Phase(degrees)
1.000000, 68.522, 17.3993
1.015000, 68.501, 17.7012
1.030000, 68.480, 18.0076
1.044000, 68.460, 18.2980
1.060000, 68.438, 18.6357
1.075000, 68.418, 18.9583
1.090000, 68.398, 19.2874
1.106000, 68.379, 19.6467
1.120000, 68.364, 19.9693
1.138000, 68.350, 20.3955
1.150000, 68.343, 20.6863
1.172000, 68.334, 21.2255
1.180000, 68.331, 21.4186
1.206000, 68.326, 22.0583
1.220000, 68.325, 22.4092
1.241000, 68.322, 22.9422
1.250000, 68.321, 23.1727
1.265000, 68.318, 23.5590
1.280000, 68.313, 23.9472
1.315000, 68.295, 24.8566
1.320000, 68.291, 24.9865
1.340000, 68.272, 25.5049
1.360000, 68.246, 26.0212
1.380000, 68.212, 26.4945
1.400000, 68.169, 26.9464
1.430000, 68.083, 27.6078
1.450000, 68.011, 28.0354
1.475000, 67.901, 28.5580
1.500000, 67.766, 29.0808
1.525000, 67.609, 29.6090
1.550000, 67.431, 30.1404
1.575000, 67.238, 30.6505
1.600000, 67.031, 31.1190
1.625000, 66.816, 31.5820
1.650000, 66.594, 32.0363
1.675000, 66.371, 32.4791
1.700000, 66.149, 32.9075
1.725000, 65.931, 33.3186
1.750000, 65.723, 33.7100
1.775000, 65.526, 34.0619
1.800000, 65.345, 34.3560
1.825000, 65.182, 34.6259
1.850000, 65.035, 34.8775
1.875000, 64.898, 35.1213
1.900000, 64.770, 35.3596
1.925000, 64.649, 35.5903
1.950000, 64.535, 35.8114
1.975000, 64.428, 36.0034
2.000000, 64.326, 36.1478
2.030000, 64.211, 36.2992
2.060000, 64.102, 36.4206
2.090000, 64.000, 36.5079
2.120000, 63.902, 36.5569
2.140000, 63.839, 36.5662
2.180000, 63.719, 36.5039
2.200000, 63.661, 36.4236
2.240000, 63.553, 36.2188
2.270000, 63.479, 36.0353
2.300000, 63.412, 35.8284
2.330000, 63.351, 35.5983
2.360000, 63.295, 35.3444
2.400000, 63.227, 34.9202
2.430000, 63.181, 34.5662
2.470000, 63.124, 34.0534
2.500000, 63.084, 33.6363
2.540000, 63.034, 33.0337
2.580000, 62.987, 32.3566
2.620000, 62.946, 31.5888
2.650000, 62.919, 30.9840
2.690000, 62.889, 30.1451
2.720000, 62.870, 29.4958
2.760000, 62.848, 28.6098
2.800000, 62.829, 27.6629
2.850000, 62.810, 26.4485
2.900000, 62.792, 25.2082
2.950000, 62.777, 23.9329
3.000000, 62.766, 22.5735
3.040000, 62.760, 21.4414
3.070000, 62.757, 20.5799
3.110000, 62.755, 19.4227
3.150000, 62.755, 18.2634
3.200000, 62.757, 16.7910
3.250000, 62.760, 15.3207
3.300000, 62.764, 13.8652
3.350000, 62.769, 12.3992
3.400000, 62.776, 10.8762
3.450000, 62.785, 9.3314
3.500000, 62.795, 7.7985
3.550000, 62.805, 6.2965
3.600000, 62.815, 4.8129
3.650000, 62.824, 3.3690
3.700000, 62.833, 1.9580
3.750000, 62.841, 0.5536
3.820000, 62.852, -1.4304
3.870000, 62.859, -2.8220
3.950000, 62.870, -4.9476
4.000000, 62.876, -6.2161
4.060000, 62.882, -7.6722
4.120000, 62.887, -9.0787
4.180000, 62.891, -10.4501
4.250000, 62.895, -12.0104
4.310000, 62.898, -13.2629
4.370000, 62.901, -14.4290
4.440000, 62.904, -15.7245
4.500000, 62.905, -16.7579
4.550000, 62.906, -17.5581
4.620000, 62.907, -18.6127
4.680000, 62.911, -19.4379
4.750000, 62.918, -20.3013
4.820000, 62.929, -21.0764
4.870000, 62.939, -21.5667
4.940000, 62.954, -22.1716
5.000000, 62.972, -22.6460
5.080000, 63.001, -23.2251
5.150000, 63.035, -23.6538
5.220000, 63.074, -24.0009
5.300000, 63.126, -24.3020
5.380000, 63.187, -24.5246
5.450000, 63.249, -24.6885
5.520000, 63.319, -24.8069
5.600000, 63.408, -24.8894
5.700000, 63.534, -24.9303
5.800000, 63.674, -24.9307
5.900000, 63.828, -24.9270
6.000000, 63.995, -24.8938
6.080000, 64.138, -24.8663
6.150000, 64.268, -24.8413
6.220000, 64.402, -24.8407
6.300000, 64.561, -24.8492
6.400000, 64.768, -24.8692
6.500000, 64.982, -24.9260
6.600000, 65.200, -25.0264
6.700000, 65.421, -25.1735
6.800000, 65.646, -25.3521
6.900000, 65.872, -25.5839
7.000000, 66.097, -25.8664
7.100000, 66.321, -26.1989
7.200000, 66.543, -26.5698
7.300000, 66.760, -26.9898
7.400000, 66.970, -27.4542
7.500000, 67.175, -27.9657
7.620000, 67.410, -28.6098
7.750000, 67.648, -29.3375
7.880000, 67.870, -30.1037
8.000000, 68.059, -30.8003
8.120000, 68.231, -31.4730
8.250000, 68.400, -32.1788
8.380000, 68.553, -32.8173
8.500000, 68.680, -33.3264
8.620000, 68.796, -33.7600
8.750000, 68.913, -34.1257
8.850000, 69.000, -34.3201
9.000000, 69.128, -34.4752
9.120000, 69.232, -34.5000
9.250000, 69.354, -34.4299
9.380000, 69.484, -34.2709
9.500000, 69.615, -34.0883
9.620000, 69.759, -33.8812
9.750000, 69.927, -33.6466
9.880000, 70.098, -33.4513
10.000000, 70.255, -33.3158
10.150000, 70.450, -33.2512
10.300000, 70.638, -33.2837
10.440000, 70.807, -33.4037
10.600000, 70.988, -33.6269
10.750000, 71.146, -33.9106
10.900000, 71.291, -34.2437
11.060000, 71.429, -34.6424
11.200000, 71.536, -35.0333
11.380000, 71.654, -35.5027
11.500000, 71.722, -35.7835
11.720000, 71.828, -36.2239
11.800000, 71.864, -36.3568
12.060000, 71.971, -36.7268
12.200000, 72.026, -36.9256
12.410000, 72.103, -37.1790
12.500000, 72.132, -37.2750
12.650000, 72.173, -37.4181
12.800000, 72.204, -37.5273
13.150000, 72.232, -37.6228
13.200000, 72.232, -37.6067
13.400000, 72.219, -37.4075
13.600000, 72.201, -36.9322
13.800000, 72.189, -36.1328
14.000000, 72.208, -35.0121
14.300000, 72.338, -32.9417
14.500000, 72.517, -31.4537
14.750000, 72.847, -29.8061
15.000000, 73.276, -28.6917
15.250000, 73.761, -28.3767
15.500000, 74.246, -28.8245
15.750000, 74.687, -29.9197
16.000000, 75.054, -31.4774
16.250000, 75.337, -33.3124
16.500000, 75.537, -35.1744
16.750000, 75.664, -36.8736
17.000000, 75.741, -38.2790
17.250000, 75.792, -39.3507
17.500000, 75.838, -40.0536
17.750000, 75.900, -40.4449
18.000000, 75.989, -40.6206
18.250000, 76.106, -40.7012
18.500000, 76.247, -40.7439
18.750000, 76.402, -40.7845
19.000000, 76.567, -40.8322
19.250000, 76.737, -40.9005
19.500000, 76.911, -40.9538
19.750000, 77.089, -40.9902
20.000000, 77.271, -41.0198
20.299999, 77.494, -41.0980
20.600000, 77.717, -41.2027
20.900000, 77.935, -41.3277
21.200001, 78.145, -41.4695
21.400000, 78.281, -41.5596
21.799999, 78.552, -41.7198
22.000000, 78.688, -41.8102
22.400000, 78.958, -42.1032
22.700001, 79.149, -42.4167
23.000000, 79.318, -42.7850
23.299999, 79.460, -43.1539
23.600000, 79.578, -43.4126
24.000000, 79.721, -43.4677
24.299999, 79.841, -43.3095
24.700001, 80.044, -42.9575
25.000000, 80.231, -42.7364
25.400000, 80.505, -42.6870
25.799999, 80.774, -42.9120
26.200001, 81.013, -43.2909
26.500000, 81.173, -43.5704
26.900000, 81.374, -43.8344
27.200001, 81.526, -43.9500
27.600000, 81.742, -44.0445
28.000000, 81.974, -44.1548
28.500000, 82.271, -44.4385
29.000000, 82.551, -44.8829
29.500000, 82.795, -45.3887
30.000000, 83.000, -45.7579
30.400000, 83.153, -45.8800
30.700001, 83.273, -45.8708
31.100000, 83.450, -45.8049
31.500000, 83.644, -45.7960
32.000000, 83.890, -45.9418
32.500000, 84.114, -46.2148
33.000000, 84.316, -46.4479
33.500000, 84.516, -46.5961
34.000000, 84.730, -46.7297
34.500000, 84.952, -46.9458
35.000000, 85.165, -47.2198
35.500000, 85.372, -47.4822
36.000000, 85.581, -47.7013
36.500000, 85.799, -47.9304
37.000000, 86.021, -48.2158
37.500000, 86.236, -48.5570
38.200001, 86.519, -49.0160
38.700001, 86.715, -49.2810
39.500000, 87.034, -49.6243
40.000000, 87.237, -49.8472
40.599998, 87.477, -50.1705
41.200001, 87.705, -50.5281
41.799999, 87.920, -50.8922
42.500000, 88.152, -51.2857
43.099998, 88.341, -51.5297
43.700001, 88.537, -51.6639
44.400002, 88.791, -51.8175
45.000000, 89.018, -52.0944
45.500000, 89.199, -52.4190
46.200001, 89.434, -52.8784
46.799999, 89.633, -53.2349
47.500000, 89.864, -53.6434
48.200001, 90.091, -54.0038
48.700001, 90.259, -54.2144
49.400002, 90.507, -54.5278
50.000000, 90.722, -54.8788
50.799999, 90.990, -55.3813
51.500000, 91.219, -55.7499
52.200001, 91.454, -56.0875
53.000000, 91.726, -56.5152
53.799999, 91.992, -57.0033
54.500000, 92.217, -57.4445
55.200001, 92.438, -57.8683
56.000000, 92.691, -58.3428
57.000000, 93.005, -58.9742
58.000000, 93.312, -59.6180
59.000000, 93.617, -60.2576
60.000000, 93.924, -60.9109
60.799999, 94.170, -61.4750
61.500000, 94.382, -62.0160
62.200001, 94.587, -62.5645
63.000000, 94.822, -63.1790
64.000000, 95.119, -64.0019
65.000000, 95.406, -64.9053
66.000000, 95.681, -65.7892
67.000000, 95.954, -66.6419
68.000000, 96.225, -67.4852
69.000000, 96.493, -68.3447
70.000000, 96.753, -69.1925
71.000000, 97.014, -70.0078
72.000000, 97.283, -70.8558
73.000000, 97.555, -71.7702
74.000000, 97.825, -72.7633
75.000000, 98.090, -73.8083
76.199997, 98.400, -75.1014
77.500000, 98.729, -76.5263
78.800003, 99.050, -77.9627
80.000000, 99.342, -79.3102
81.199997, 99.629, -80.6835
82.500000, 99.934, -82.2051
83.800003, 100.236, -83.7284
85.000000, 100.518, -85.1660
86.199997, 100.804, -86.6537
87.500000, 101.117, -88.3638
88.500000, 101.359, -89.7721
90.000000, 101.711, -92.0738
91.199997, 101.979, -94.0442
92.500000, 102.253, -96.2841
93.800003, 102.509, -98.6002
95.000000, 102.731, -100.7917
96.199997, 102.937, -103.0727
97.500000, 103.134, -105.6088
98.800003, 103.305, -108.1462
100.000000, 103.448, -110.4673
101.500000, 103.608, -113.3845
103.000000, 103.736, -116.3137
104.400002, 103.826, -118.9887
106.000000, 103.901, -121.9580
107.500000, 103.944, -124.6365
109.000000, 103.973, -127.1431
110.599998, 104.008, -129.6625
112.000000, 104.044, -131.8032
113.800003, 104.095, -134.4964
115.000000, 104.131, -136.3125
117.199997, 104.186, -139.7278
118.000000, 104.202, -140.9930
120.599998, 104.234, -145.2085
122.000000, 104.227, -147.5367
124.099998, 104.185, -150.9369
125.000000, 104.159, -152.3704
126.500000, 104.106, -154.7159
128.000000, 104.040, -157.0011
131.500000, 103.842, -162.0128
132.000000, 103.809, -162.6919
134.000000, 103.664, -165.3114
136.000000, 103.511, -167.7767
138.000000, 103.348, -170.1371
140.000000, 103.171, -172.3118
143.000000, 102.886, -175.2484
145.000000, 102.690, -176.9914
147.500000, 102.452, -178.9925
150.000000, 102.216, 179.1841
152.500000, 101.980, 177.5093
155.000000, 101.742, 175.9494
157.500000, 101.502, 174.5590
160.000000, 101.267, 173.3209
162.500000, 101.035, 172.1877
165.000000, 100.808, 171.1502
167.500000, 100.586, 170.2156
170.000000, 100.368, 169.3951
172.500000, 100.150, 168.6575
175.000000, 99.940, 168.0035
177.500000, 99.742, 167.3959
180.000000, 99.550, 166.8303
182.500000, 99.363, 166.3117
185.000000, 99.180, 165.8540
187.500000, 99.000, 165.4524
190.000000, 98.825, 165.0897
192.500000, 98.658, 164.7565
195.000000, 98.497, 164.4477
197.500000, 98.340, 164.1855
200.000000, 98.186, 163.9631
203.000000, 98.006, 163.7618
206.000000, 97.833, 163.5759
209.000000, 97.670, 163.3793
212.000000, 97.512, 163.1981
214.000000, 97.406, 163.1125
218.000000, 97.204, 162.9176
220.000000, 97.105, 162.8045
224.000000, 96.896, 162.6762
227.000000, 96.733, 162.6487
230.000000, 96.569, 162.6874
233.000000, 96.418, 162.8395
236.000000, 96.283, 163.0033
240.000000, 96.114, 163.1598
243.000000, 95.987, 163.2771
247.000000, 95.816, 163.4733
250.000000, 95.687, 163.6433
254.000000, 95.516, 163.9396
258.000000, 95.355, 164.3394
262.000000, 95.206, 164.7968
265.000000, 95.095, 165.1716
269.000000, 94.949, 165.7209
272.000000, 94.849, 166.1883
276.000000, 94.735, 166.9428
280.000000, 94.652, 167.8887
285.000000, 94.615, 169.0609
290.000000, 94.633, 169.9329
295.000000, 94.689, 170.6758
300.000000, 94.818, 171.1139
304.000000, 94.952, 170.7235
307.000000, 95.024, 169.9407
311.000000, 95.035, 168.5289
315.000000, 94.936, 167.1633
320.000000, 94.716, 165.9581
325.000000, 94.461, 165.3771
330.000000, 94.212, 165.2571
335.000000, 93.987, 165.4100
340.000000, 93.784, 165.7333
345.000000, 93.602, 166.1505
350.000000, 93.434, 166.6191
355.000000, 93.276, 167.1109
360.000000, 93.125, 167.6636
365.000000, 92.991, 168.2323
370.000000, 92.872, 168.7599
375.000000, 92.762, 169.2769
382.000000, 92.612, 169.9356
387.000000, 92.506, 170.3114
395.000000, 92.319, 170.9604
400.000000, 92.199, 171.4366
406.000000, 92.052, 172.0493
412.000000, 91.907, 172.6825
418.000000, 91.784, 173.3512
425.000000, 91.646, 174.1102
431.000000, 91.528, 174.7332
437.000000, 91.412, 175.3913
444.000000, 91.279, 176.1982
450.000000, 91.165, 176.8362
455.000000, 91.070, 177.3386
462.000000, 90.939, 178.0443
468.000000, 90.825, 178.6729
475.000000, 90.685, 179.3893
482.000000, 90.537, -179.9249
487.000000, 90.427, -179.4153
494.000000, 90.269, -178.6012
500.000000, 90.135, -177.8707
508.000000, 89.952, -176.8526
515.000000, 89.787, -175.9074
522.000000, 89.625, -174.9003
530.000000, 89.440, -173.7666
538.000000, 89.241, -172.5556
545.000000, 89.065, -171.3765
552.000000, 88.903, -170.0886
560.000000, 88.739, -168.7475
570.000000, 88.491, -167.1798
580.000000, 88.207, -165.1252
590.000000, 87.965, -162.8802
600.000000, 87.711, -160.7877
608.000000, 87.476, -159.0428
615.000000, 87.241, -157.2477
622.000000, 87.009, -155.0676
630.000000, 86.779, -152.3298
640.000000, 86.527, -148.9455
650.000000, 86.271, -145.4824
660.000000, 85.981, -141.8101
670.000000, 85.677, -137.2957
680.000000, 85.443, -132.0240
690.000000, 85.276, -126.3128
700.000000, 85.200, -119.9573
710.000000, 85.247, -113.0063
720.000000, 85.469, -105.7451
730.000000, 85.847, -98.7962
740.000000, 86.348, -91.9661
750.000000, 87.026, -85.1240
762.000000, 88.095, -78.1116
775.000000, 89.373, -72.7291
788.000000, 90.652, -69.1520
800.000000, 91.805, -66.7933
812.000000, 92.984, -65.3754
825.000000, 94.209, -65.3775
838.000000, 95.264, -66.5393
850.000000, 96.149, -67.6070
862.000000, 96.996, -69.1734
875.000000, 97.828, -71.2557
885.000000, 98.429, -73.1234
900.000000, 99.214, -76.5542
912.000000, 99.742, -79.4653
925.000000, 100.220, -82.6745
938.000000, 100.622, -85.8597
950.000000, 100.923, -88.7745
962.000000, 101.165, -91.5814
975.000000, 101.371, -94.4591
988.000000, 101.522, -97.1772
1000.000000, 101.627, -99.5093
1015.000000, 101.706, -102.2440
1030.000000, 101.731, -104.5885
1044.000000, 101.738, -106.4381
1060.000000, 101.739, -108.2404
1075.000000, 101.738, -109.7303
1090.000000, 101.740, -111.0916
1106.000000, 101.734, -112.4400
1120.000000, 101.717, -113.4173
1138.000000, 101.697, -114.4177
1150.000000, 101.682, -114.9877
1172.000000, 101.664, -115.7187
1180.000000, 101.665, -115.9420
1206.000000, 101.674, -116.5601
1220.000000, 101.680, -116.7751
1241.000000, 101.709, -116.8855
1250.000000, 101.733, -116.8804
1265.000000, 101.789, -116.9178
1280.000000, 101.850, -117.0588
1315.000000, 101.931, -117.2989
1320.000000, 101.942, -117.2572
1340.000000, 102.003, -117.0514
1360.000000, 102.059, -116.8786
1380.000000, 102.117, -116.6350
1400.000000, 102.213, -116.3461
1430.000000, 102.388, -115.9454
1450.000000, 102.523, -115.7699
1475.000000, 102.684, -115.5264
1500.000000, 102.867, -115.2927
1525.000000, 103.054, -115.2321
1550.000000, 103.218, -115.3132
1575.000000, 103.345, -115.1443
1600.000000, 103.532, -114.5476
1625.000000, 103.771, -114.3656
1650.000000, 103.994, -114.2460
1675.000000, 104.237, -114.1156
1700.000000, 104.516, -114.0391
1725.000000, 104.832, -114.2649
1750.000000, 105.137, -114.9589
1775.000000, 105.389, -115.7657
1800.000000, 105.650, -116.4973
1825.000000, 105.899, -117.4203
1850.000000, 106.147, -118.2488
1875.000000, 106.434, -119.1743
1900.000000, 106.735, -120.5587
1925.000000, 106.997, -122.2924
1950.000000, 107.230, -124.2002
1975.000000, 107.423, -126.3568
2000.000000, 107.558, -128.6380
2030.000000, 107.642, -131.2699
2060.000000, 107.691, -133.5217
2090.000000, 107.759, -135.7003
2120.000000, 107.795, -138.0286
2140.000000, 107.811, -139.5185
2180.000000, 107.823, -142.8763
2200.000000, 107.761, -144.6102
2240.000000, 107.589, -147.3633
2270.000000, 107.483, -149.2859
2300.000000, 107.334, -151.3849
2330.000000, 107.132, -153.1122
2360.000000, 106.939, -154.5268
2400.000000, 106.695, -156.2075
2430.000000, 106.527, -157.4316
2470.000000, 106.266, -159.3407
2500.000000, 105.993, -160.5875
2540.000000, 105.587, -161.6181
2580.000000, 105.138, -161.7135
2620.000000, 104.776, -160.2453
2650.000000, 104.708, -158.6056
2690.000000, 104.831, -157.6819
2720.000000, 104.833, -158.0097
2760.000000, 104.740, -156.7047
2800.000000, 105.236, -154.0634
2850.000000, 106.335, -157.5813
2900.000000, 106.686, -165.2843
2950.000000, 106.415, -171.5462
3000.000000, 106.006, -175.7753
3040.000000, 105.759, -178.4118
3070.000000, 105.635, 179.7022
3110.000000, 105.558, 177.0599
3150.000000, 105.603, 173.9275
3200.000000, 105.812, 168.0616
3250.000000, 105.954, 158.3837
3300.000000, 105.513, 144.8043
3350.000000, 104.393, 133.0126
3400.000000, 103.482, 124.6808
3450.000000, 102.954, 114.7246
3500.000000, 102.320, 102.6023
3550.000000, 101.597, 89.8443
3600.000000, 101.009, 76.0706
3650.000000, 100.603, 60.2660
3700.000000, 100.148, 42.5971
3750.000000, 99.462, 24.7838
3820.000000, 98.107, 4.0319
3870.000000, 97.141, -5.8397
3950.000000, 96.158, -13.9886
4000.000000, 95.850, -15.5097
4060.000000, 95.903, -12.6985
4120.000000, 96.949, -7.2672
4180.000000, 98.838, -4.8260
4250.000000, 101.364, -9.0623
4310.000000, 103.126, -19.3344
4370.000000, 103.754, -33.0111
4440.000000, 103.057, -42.1923
4500.000000, 102.950, -43.5785
4550.000000, 103.108, -47.5609
4620.000000, 102.504, -51.4982
4680.000000, 102.365, -48.0640
4750.000000, 103.072, -48.4853
4820.000000, 103.173, -52.7020
4870.000000, 103.060, -53.9888
4940.000000, 103.090, -54.4555
5000.000000, 103.264, -54.7363
5080.000000, 103.808, -56.2742
5150.000000, 104.245, -62.0307
5220.000000, 103.915, -69.6014
5300.000000, 102.754, -72.2954
5380.000000, 102.137, -68.5475
5450.000000, 102.116, -68.6924
5520.000000, 101.526, -71.1827
5600.000000, 100.178, -68.4592
5700.000000, 99.179, -54.2965
5800.000000, 100.288, -37.3740
5900.000000, 102.627, -32.7268
6000.000000, 103.961, -38.5873
6080.000000, 104.246, -42.5419
6150.000000, 104.465, -43.9172
6220.000000, 104.841, -45.4500
6300.000000, 105.185, -48.8329
6400.000000, 105.169, -53.4600
6500.000000, 104.850, -56.0549
6600.000000, 104.553, -56.7057
6700.000000, 104.341, -56.4968
6800.000000, 104.252, -55.3273
6900.000000, 104.410, -54.1931
7000.000000, 104.694, -54.0463
7100.000000, 105.010, -54.7006
7200.000000, 105.331, -56.4640
7300.000000, 105.527, -59.4420
7400.000000, 105.496, -63.1423
7500.000000, 105.150, -66.7397
7620.000000, 104.381, -68.5204
7750.000000, 103.725, -65.9543
7880.000000, 103.691, -62.4713
8000.000000, 103.918, -62.4312
8120.000000, 103.883, -64.7657
8250.000000, 103.405, -67.3778
8380.000000, 102.603, -67.0272
8500.000000, 102.138, -63.6264
8620.000000, 102.108, -60.5985
8750.000000, 102.354, -58.6270
8850.000000, 102.738, -58.8690
9000.000000, 103.167, -63.2147
9120.000000, 103.264, -68.5712
9250.000000, 103.070, -76.3069
9380.000000, 102.381, -85.2202
9500.000000, 101.211, -93.4499
9620.000000, 99.474, -99.8374
9750.000000, 97.121, -102.7598
9880.000000, 94.604, -100.5383
10000.000000, 92.512, -94.4128
10150.000000, 90.484, -85.5997
10300.000000, 88.696, -77.5500
10440.000000, 86.818, -68.5661
10600.000000, 84.741, -46.6250
10750.000000, 84.783, -19.5255
10900.000000, 86.070, -5.1097
11060.000000, 87.385, 2.8652
11200.000000, 88.361, 6.4186
11380.000000, 89.064, 8.1404
11500.000000, 89.302, 10.1041
11720.000000, 90.198, 15.0192
11800.000000, 90.732, 15.6188
12060.000000, 92.432, 7.8872
12200.000000, 92.693, -2.0463
12410.000000, 91.617, -19.6631
12500.000000, 90.674, -26.9397
12650.000000, 88.740, -38.9670
12800.000000, 86.625, -54.3669
13150.000000, 83.589, -136.0264
13200.000000, 83.918, -150.2774
13400.000000, 86.154, 170.2930
13600.000000, 87.842, 149.2400
13800.000000, 88.723, 138.6294
14000.000000, 89.706, 134.9844
14300.000000, 91.512, 128.7789
14500.000000, 92.277, 122.0574
14750.000000, 92.599, 112.1599
15000.000000, 92.033, 101.0312
15250.000000, 90.256, 91.8342
15500.000000, 87.379, 90.5964
15750.000000, 84.503, 103.8470
16000.000000, 83.508, 124.0104
16250.000000, 84.013, 137.6285
16500.000000, 84.717, 144.3798
16750.000000, 85.180, 147.9157
17000.000000, 85.427, 149.7841
17250.000000, 85.371, 150.4623
17500.000000, 84.923, 151.7901
17750.000000, 84.297, 155.6633
18000.000000, 83.747, 161.6656
18250.000000, 83.369, 169.8301
18500.000000, 83.648, -179.3837
18750.000000, 84.783, -171.2520
19000.000000, 85.863, -167.9642
19250.000000, 86.401, -165.8329
19500.000000, 86.421, -163.1603
19750.000000, 85.976, -160.2736
20000.000000, 85.070, -156.8629
20300.000000, 83.583, -151.4580
20600.000000, 81.918, -145.5629
20900.000000, 79.933, -139.7006
21200.000000, 77.633, -132.9252
21400.000000, 75.995, -128.3773
21800.000000, 72.068, -120.7689
22000.000000, 69.322, -116.6328
22400.000000, 61.492, -103.1527
22700.000000, 54.020, -90.3578
23000.000000, 45.834, -82.2750
23300.000000, 37.926, -24.8190
23600.000000, 33.079, -18.4528
24000.000000, 31.563, -175.6658
