* Measurement data measured by REW V5.31
* Source: Headset (DS by VECLAN.COM), MICROPHONE (Master Volume), L, volume: 0.720. Timing signal peak level -14.4 dBFS, measurement signal peak level -13.1 dBFS
* Format: 4M Log Swept Sine, 1 sweep at -10.8 dBFS using an acoustic timing reference
* Dated: Apr 20, 2024 9:34:08 PM
* REW Settings:
*  C-weighting compensation: Off
*  Target level: 75.0 dB
* Note: ; Delay -0.0614 ms (-21 mm, -0.83 in) using estimated IR delay relative to Acoustic reference played from HEADPHONE R with no timing offset
* Measurement: Pink headset R3
* Smoothing: 1/24 octave
* Frequency Step: 1/48 octave
* Start Frequency: 1.000 Hz
*
* Freq(Hz), SPL(dB), Phase(degrees)
1.000000, 70.476, 9.8164
1.015000, 70.560, 9.5287
1.030000, 70.642, 9.2503
1.044000, 70.715, 8.9989
1.060000, 70.796, 8.7212
1.075000, 70.869, 8.4699
1.090000, 70.939, 8.2255
1.106000, 71.012, 7.9644
1.120000, 71.076, 7.7221
1.138000, 71.159, 7.3846
1.150000, 71.216, 7.1446
1.172000, 71.319, 6.6719
1.180000, 71.357, 6.4863
1.206000, 71.476, 5.8646
1.220000, 71.538, 5.5213
1.241000, 71.627, 5.0008
1.250000, 71.663, 4.7772
1.265000, 71.721, 4.4060
1.280000, 71.774, 4.0385
1.315000, 71.879, 3.2094
1.320000, 71.891, 3.0955
1.340000, 71.934, 2.6544
1.360000, 71.963, 2.2419
1.380000, 71.979, 1.8240
1.400000, 71.980, 1.4290
1.430000, 71.949, 0.9173
1.450000, 71.906, 0.6346
1.475000, 71.822, 0.3349
1.500000, 71.703, 0.0483
1.525000, 71.551, -0.2458
1.550000, 71.369, -0.5444
1.575000, 71.161, -0.8626
1.600000, 70.931, -1.2105
1.625000, 70.684, -1.5411
1.650000, 70.423, -1.8464
1.675000, 70.152, -2.1173
1.700000, 69.875, -2.3443
1.725000, 69.597, -2.5173
1.750000, 69.321, -2.6256
1.775000, 69.052, -2.6750
1.800000, 68.792, -2.6707
1.825000, 68.545, -2.5715
1.850000, 68.305, -2.3880
1.875000, 68.060, -2.1418
1.900000, 67.808, -1.8406
1.925000, 67.551, -1.4839
1.950000, 67.290, -1.0689
1.975000, 67.030, -0.6093
2.000000, 66.771, -0.1177
2.030000, 66.467, 0.5647
2.060000, 66.173, 1.3526
2.090000, 65.894, 2.2531
2.120000, 65.634, 3.2724
2.140000, 65.474, 4.0204
2.180000, 65.188, 5.6666
2.200000, 65.063, 6.5632
2.240000, 64.840, 8.5840
2.270000, 64.691, 10.3034
2.300000, 64.558, 12.1728
2.330000, 64.442, 14.1609
2.360000, 64.342, 16.2325
2.400000, 64.239, 19.0103
2.430000, 64.184, 21.0828
2.470000, 64.144, 23.7641
2.500000, 64.139, 25.6640
2.540000, 64.170, 27.9926
2.580000, 64.250, 30.0841
2.620000, 64.389, 32.0452
2.650000, 64.531, 33.4717
2.690000, 64.761, 35.2688
2.720000, 64.958, 36.5075
2.760000, 65.243, 37.9795
2.800000, 65.541, 39.1763
2.850000, 65.914, 40.3032
2.900000, 66.266, 41.0082
2.950000, 66.590, 41.3290
3.000000, 66.908, 41.3720
3.040000, 67.165, 41.2730
3.070000, 67.358, 41.1356
3.110000, 67.613, 40.8724
3.150000, 67.863, 40.5197
3.200000, 68.163, 39.9213
3.250000, 68.444, 39.1613
3.300000, 68.702, 38.2428
3.350000, 68.939, 37.1656
3.400000, 69.159, 35.9285
3.450000, 69.362, 34.5949
3.500000, 69.551, 33.2122
3.550000, 69.724, 31.8019
3.600000, 69.883, 30.3458
3.650000, 70.027, 28.8503
3.700000, 70.157, 27.2847
3.750000, 70.270, 25.6164
3.820000, 70.404, 23.1235
3.870000, 70.483, 21.3021
3.950000, 70.582, 18.4144
4.000000, 70.628, 16.6260
4.060000, 70.668, 14.4647
4.120000, 70.691, 12.2074
4.180000, 70.695, 9.8518
4.250000, 70.677, 7.0342
4.310000, 70.644, 4.6560
4.370000, 70.595, 2.3442
4.440000, 70.518, -0.3540
4.500000, 70.434, -2.7420
4.550000, 70.351, -4.7850
4.620000, 70.216, -7.6956
4.680000, 70.084, -10.1571
4.750000, 69.910, -12.9272
4.820000, 69.715, -15.6718
4.870000, 69.564, -17.6749
4.940000, 69.333, -20.5313
5.000000, 69.119, -23.0001
5.080000, 68.806, -26.2212
5.150000, 68.509, -28.9218
5.220000, 68.190, -31.6185
5.300000, 67.799, -34.7474
5.380000, 67.376, -37.8747
5.450000, 66.979, -40.5488
5.520000, 66.557, -43.0969
5.600000, 66.044, -45.9320
5.700000, 65.356, -49.4428
5.800000, 64.606, -52.8326
5.900000, 63.790, -55.9444
6.000000, 62.908, -58.7301
6.080000, 62.154, -60.7639
6.150000, 61.455, -62.3646
6.220000, 60.713, -63.7444
6.300000, 59.800, -64.8967
6.400000, 58.568, -65.5307
6.500000, 57.299, -65.2088
6.600000, 56.056, -63.7589
6.700000, 54.808, -60.5850
6.800000, 53.595, -55.2150
6.900000, 52.621, -48.0963
7.000000, 52.102, -40.1626
7.100000, 52.066, -32.2117
7.200000, 52.339, -25.3563
7.300000, 52.722, -20.4344
7.400000, 53.151, -17.5495
7.500000, 53.643, -16.3302
7.620000, 54.199, -16.3139
7.750000, 54.601, -17.5671
7.880000, 54.798, -20.0535
8.000000, 54.807, -22.7772
8.120000, 54.644, -25.5350
8.250000, 54.271, -28.7847
8.380000, 53.660, -31.7314
8.500000, 52.833, -33.5805
8.620000, 51.763, -34.4888
8.750000, 50.453, -33.4709
8.850000, 49.363, -30.0449
9.000000, 47.663, -18.3087
9.120000, 46.939, -3.0163
9.250000, 47.604, 14.5814
9.380000, 49.376, 27.0959
9.500000, 51.145, 32.8020
9.620000, 52.728, 34.5680
9.750000, 54.282, 34.0170
9.880000, 55.603, 31.9828
10.000000, 56.576, 29.1762
10.150000, 57.512, 24.9693
10.300000, 58.214, 20.5868
10.440000, 58.676, 16.3285
10.600000, 59.006, 11.6752
10.750000, 59.149, 7.7374
10.900000, 59.150, 4.2194
11.060000, 59.025, 1.3199
11.200000, 58.829, -0.4610
11.380000, 58.539, -1.4910
11.500000, 58.354, -1.2630
11.720000, 58.153, 0.6561
11.800000, 58.164, 1.6988
12.060000, 58.509, 5.3267
12.200000, 58.871, 6.6798
12.410000, 59.546, 7.5233
12.500000, 59.837, 7.3618
12.650000, 60.301, 6.4692
12.800000, 60.704, 4.9647
13.150000, 61.293, -0.2846
13.200000, 61.333, -1.1389
13.400000, 61.379, -4.6572
13.600000, 61.245, -8.0421
13.800000, 60.937, -11.0495
14.000000, 60.469, -13.3919
14.300000, 59.511, -15.1319
14.500000, 58.754, -14.5636
14.750000, 57.807, -11.3659
15.000000, 57.068, -5.1676
15.250000, 56.833, 3.0354
15.500000, 57.204, 10.9116
15.750000, 58.041, 16.1897
16.000000, 59.042, 18.0392
16.250000, 59.970, 16.7867
16.500000, 60.689, 13.2187
16.750000, 61.126, 7.9988
17.000000, 61.246, 1.7497
17.250000, 61.020, -5.0327
17.500000, 60.415, -11.7371
17.750000, 59.393, -17.5379
18.000000, 57.935, -21.2572
18.250000, 56.131, -20.8480
18.500000, 54.436, -13.6947
18.750000, 53.755, -0.4643
19.000000, 54.560, 10.9614
19.250000, 55.965, 14.9659
19.500000, 57.242, 13.2541
19.750000, 58.089, 8.3926
20.000000, 58.481, 2.2396
20.299999, 58.390, -5.1058
20.600000, 57.771, -10.6541
20.900000, 56.816, -12.4988
21.200001, 55.969, -9.2103
21.400000, 55.795, -4.6734
21.799999, 56.620, 3.9889
22.000000, 57.356, 5.9496
22.400000, 58.691, 5.2570
22.700001, 59.337, 2.7550
23.000000, 59.686, 0.1386
23.299999, 59.847, -1.8208
23.600000, 59.950, -2.9668
24.000000, 60.122, -4.0103
24.299999, 60.234, -5.1625
24.700001, 60.157, -7.3021
25.000000, 59.822, -8.5985
25.400000, 59.044, -8.0010
25.799999, 58.330, -3.1987
26.200001, 58.326, 3.3583
26.500000, 58.760, 6.0213
26.900000, 59.311, 4.9370
27.200001, 59.369, 1.8071
27.600000, 58.800, -2.5953
28.000000, 57.704, -3.8654
28.500000, 56.868, 0.5784
29.000000, 57.680, 1.1885
29.500000, 58.626, -9.7260
30.000000, 58.360, -27.7556
30.400000, 56.913, -42.9698
30.700001, 54.962, -51.5078
31.100000, 51.830, -43.1248
31.500000, 51.910, 8.6937
32.000000, 55.683, 16.5786
32.500000, 57.906, 4.4396
33.000000, 58.476, -6.0059
33.500000, 58.342, -9.3080
34.000000, 58.632, -6.2631
34.500000, 59.502, -3.0910
35.000000, 60.272, -2.0228
35.500000, 60.800, -1.1311
36.000000, 61.328, -0.2669
36.500000, 61.767, -1.0246
37.000000, 61.736, -2.9342
37.500000, 61.134, -2.8669
38.200001, 60.408, 4.6485
38.700001, 60.716, 10.1006
39.500000, 61.302, 10.8575
40.000000, 61.284, 10.0578
40.599998, 61.360, 9.6729
41.200001, 61.602, 7.6381
41.799999, 61.542, 4.9997
42.500000, 61.524, 6.3728
43.099998, 62.471, 8.2783
43.700001, 63.667, 4.9624
44.400002, 64.181, -2.3364
45.000000, 63.970, -6.1244
45.500000, 63.810, -6.7863
46.200001, 63.794, -7.6166
46.799999, 63.454, -8.9408
47.500000, 62.653, -6.9155
48.200001, 62.368, -1.6116
48.700001, 62.523, 0.5150
49.400002, 62.771, 0.4900
50.000000, 62.985, -1.1730
50.799999, 63.174, -4.3215
51.500000, 63.458, -4.2641
52.200001, 64.626, -3.3126
53.000000, 66.014, -7.0290
53.799999, 66.624, -9.1991
54.500000, 67.313, -7.7320
55.200001, 67.898, -5.7649
56.000000, 68.960, 8.5264
57.000000, 72.798, 19.5453
58.000000, 74.325, 3.5834
59.000000, 72.591, -5.1293
60.000000, 71.419, -0.3683
60.799999, 70.729, -2.1505
61.500000, 69.397, 0.2672
62.200001, 68.784, 7.2975
63.000000, 69.014, 6.7076
64.000000, 68.209, -2.2985
65.000000, 66.771, -5.8133
66.000000, 66.428, -7.2059
67.000000, 66.437, -11.6091
68.000000, 66.457, -14.4560
69.000000, 66.816, -13.3311
70.000000, 68.203, -10.6556
71.000000, 69.349, -15.6800
72.000000, 69.261, -18.0742
73.000000, 69.565, -15.6993
74.000000, 69.548, -16.2694
75.000000, 69.268, -10.1085
76.199997, 70.105, -7.8497
77.500000, 70.049, -15.0501
78.800003, 69.932, -19.8173
80.000000, 70.340, -22.7384
81.199997, 71.288, -23.9633
82.500000, 72.250, -25.0171
83.800003, 72.873, -25.2106
85.000000, 72.966, -24.5946
86.199997, 72.972, -24.7411
87.500000, 72.649, -29.3047
88.500000, 72.088, -34.6414
90.000000, 71.259, -31.5639
91.199997, 72.564, -26.8889
92.500000, 73.826, -33.4421
93.800003, 74.630, -37.4170
95.000000, 75.440, -38.9504
96.199997, 76.242, -41.2940
97.500000, 76.786, -45.1684
98.800003, 77.119, -48.6014
100.000000, 77.397, -51.8554
101.500000, 77.756, -56.3433
103.000000, 78.064, -62.0609
104.400002, 78.375, -67.3182
106.000000, 78.683, -73.7801
107.500000, 78.823, -78.4239
109.000000, 78.998, -81.9069
110.599998, 79.267, -87.4824
112.000000, 79.356, -94.7046
113.800003, 79.259, -104.5439
115.000000, 79.124, -110.0527
117.199997, 78.576, -118.2038
118.000000, 78.141, -120.7178
120.599998, 76.985, -127.6673
122.000000, 76.544, -141.4218
124.099998, 75.469, -162.9142
125.000000, 75.065, -169.8357
126.500000, 74.209, -178.6825
128.000000, 72.779, 173.7303
131.500000, 66.474, 155.0101
132.000000, 65.309, 152.5319
134.000000, 61.049, 155.9907
136.000000, 62.291, -90.2391
138.000000, 65.802, -93.5895
140.000000, 66.579, -108.3877
143.000000, 66.039, -123.5445
145.000000, 65.360, -132.4070
147.500000, 63.126, -128.9012
150.000000, 61.907, -106.9584
152.500000, 62.093, -95.6491
155.000000, 63.888, -93.5623
157.500000, 66.787, -97.6910
160.000000, 69.495, -98.3552
162.500000, 70.203, -104.8966
165.000000, 67.459, -111.5971
167.500000, 65.125, -112.7278
170.000000, 66.034, -105.3385
172.500000, 68.052, -90.6243
175.000000, 67.855, -93.4385
177.500000, 66.354, -94.7769
180.000000, 66.700, -95.4248
182.500000, 66.879, -90.3075
185.000000, 66.903, -82.6122
187.500000, 66.741, -85.5146
190.000000, 66.657, -86.9384
192.500000, 66.270, -85.5230
195.000000, 65.270, -83.5907
197.500000, 65.106, -86.3743
200.000000, 66.161, -88.5851
203.000000, 66.839, -85.8979
206.000000, 66.124, -82.3464
209.000000, 65.322, -82.9620
212.000000, 65.314, -79.1784
214.000000, 65.558, -74.0177
218.000000, 65.972, -69.3537
220.000000, 66.178, -71.5841
224.000000, 66.667, -78.1263
227.000000, 67.240, -77.7227
230.000000, 67.839, -73.0165
233.000000, 67.938, -71.2843
236.000000, 67.268, -73.5845
240.000000, 66.858, -75.1479
243.000000, 67.037, -76.0630
247.000000, 67.167, -78.1705
250.000000, 67.484, -77.8898
254.000000, 67.985, -77.7142
258.000000, 68.231, -76.6104
262.000000, 68.493, -73.3741
265.000000, 68.455, -70.6030
269.000000, 68.307, -69.5153
272.000000, 68.266, -68.5539
276.000000, 68.507, -65.3259
280.000000, 68.953, -62.8350
285.000000, 69.822, -62.4747
290.000000, 71.185, -68.1597
295.000000, 71.889, -80.9600
300.000000, 70.857, -97.6855
304.000000, 68.479, -109.4330
307.000000, 66.009, -113.4321
311.000000, 64.512, -59.4267
315.000000, 68.088, 16.2159
320.000000, 72.270, 1.9660
325.000000, 74.385, -15.6756
330.000000, 75.267, -30.3588
335.000000, 75.421, -40.3447
340.000000, 75.284, -47.4462
345.000000, 75.178, -52.4497
350.000000, 75.122, -54.5486
355.000000, 75.038, -55.6759
360.000000, 75.036, -56.3361
365.000000, 74.944, -56.4130
370.000000, 74.847, -56.7922
375.000000, 74.834, -56.5417
382.000000, 74.994, -56.0128
387.000000, 75.038, -57.0632
395.000000, 75.320, -57.5593
400.000000, 75.807, -57.5558
406.000000, 76.273, -58.0473
412.000000, 76.187, -59.1143
418.000000, 76.107, -60.9649
425.000000, 76.148, -61.6210
431.000000, 76.279, -62.1697
437.000000, 76.247, -63.5889
444.000000, 76.033, -62.9932
450.000000, 75.955, -61.6895
455.000000, 75.914, -60.8736
462.000000, 75.928, -59.9327
468.000000, 76.110, -59.0508
475.000000, 76.252, -60.5298
482.000000, 75.872, -61.8963
487.000000, 75.686, -60.7607
494.000000, 75.785, -60.0854
500.000000, 75.961, -60.3427
508.000000, 75.998, -60.1128
515.000000, 75.864, -59.9445
522.000000, 75.672, -59.1257
530.000000, 75.443, -57.4017
538.000000, 75.180, -54.8548
545.000000, 75.135, -52.0717
552.000000, 75.238, -49.6982
560.000000, 75.317, -46.8540
570.000000, 75.350, -42.6987
580.000000, 75.598, -38.2355
590.000000, 75.936, -33.8645
600.000000, 76.418, -30.5868
608.000000, 76.805, -28.4412
615.000000, 77.114, -26.7739
622.000000, 77.432, -25.2946
630.000000, 77.797, -23.5522
640.000000, 78.181, -21.6343
650.000000, 78.634, -19.1984
660.000000, 79.184, -17.5809
670.000000, 79.708, -16.5060
680.000000, 80.235, -14.7236
690.000000, 80.775, -12.3557
700.000000, 81.319, -11.1605
710.000000, 81.808, -11.2728
720.000000, 82.270, -10.9613
730.000000, 82.775, -9.8506
740.000000, 83.199, -8.7859
750.000000, 83.591, -8.5141
762.000000, 84.189, -7.8974
775.000000, 84.858, -6.7145
788.000000, 85.481, -6.1346
800.000000, 86.041, -5.8342
812.000000, 86.599, -5.8388
825.000000, 87.210, -5.6484
838.000000, 87.830, -5.5040
850.000000, 88.401, -5.5754
862.000000, 88.974, -6.0047
875.000000, 89.583, -6.7595
885.000000, 90.038, -7.6290
900.000000, 90.656, -8.9639
912.000000, 91.157, -9.7945
925.000000, 91.686, -10.8651
938.000000, 92.174, -12.2942
950.000000, 92.623, -13.7591
962.000000, 93.074, -15.2665
975.000000, 93.573, -17.0870
988.000000, 94.025, -19.1681
1000.000000, 94.385, -21.0600
1015.000000, 94.829, -23.5805
1030.000000, 95.183, -26.2149
1044.000000, 95.510, -28.3894
1060.000000, 95.950, -30.8121
1075.000000, 96.280, -33.5246
1090.000000, 96.551, -36.5219
1106.000000, 96.807, -39.5233
1120.000000, 96.994, -42.0996
1138.000000, 97.165, -45.4892
1150.000000, 97.244, -47.6828
1172.000000, 97.368, -51.4584
1180.000000, 97.376, -52.8129
1206.000000, 97.299, -56.2919
1220.000000, 97.247, -57.6930
1241.000000, 97.198, -59.2872
1250.000000, 97.186, -59.7574
1265.000000, 97.192, -60.4220
1280.000000, 97.215, -61.1519
1315.000000, 97.330, -62.7942
1320.000000, 97.341, -63.0761
1340.000000, 97.362, -64.0869
1360.000000, 97.376, -64.9191
1380.000000, 97.392, -65.6875
1400.000000, 97.419, -66.3898
1430.000000, 97.455, -67.3374
1450.000000, 97.463, -67.8164
1475.000000, 97.480, -68.0615
1500.000000, 97.544, -68.2659
1525.000000, 97.582, -69.1680
1550.000000, 97.415, -69.5945
1575.000000, 97.299, -67.8294
1600.000000, 97.459, -66.0129
1625.000000, 97.693, -65.2594
1650.000000, 97.893, -64.9299
1675.000000, 98.073, -64.6366
1700.000000, 98.242, -64.3791
1725.000000, 98.399, -64.1263
1750.000000, 98.559, -63.7945
1775.000000, 98.724, -63.5778
1800.000000, 98.862, -63.4239
1825.000000, 98.964, -63.0751
1850.000000, 99.049, -62.2875
1875.000000, 99.178, -61.0025
1900.000000, 99.382, -59.5265
1925.000000, 99.661, -58.1130
1950.000000, 99.996, -56.9654
1975.000000, 100.358, -56.1818
2000.000000, 100.722, -55.6683
2030.000000, 101.152, -55.2212
2060.000000, 101.592, -54.9005
2090.000000, 102.047, -54.7429
2120.000000, 102.514, -54.7785
2140.000000, 102.832, -54.8958
2180.000000, 103.485, -55.3163
2200.000000, 103.826, -55.7253
2240.000000, 104.528, -57.2609
2270.000000, 104.996, -59.4140
2300.000000, 105.271, -62.1311
2330.000000, 105.337, -63.8499
2360.000000, 105.439, -63.4567
2400.000000, 105.992, -62.1563
2430.000000, 106.582, -62.4502
2470.000000, 107.380, -64.3397
2500.000000, 107.946, -66.7875
2540.000000, 108.513, -71.3558
2580.000000, 108.816, -75.5147
2620.000000, 109.109, -78.3240
2650.000000, 109.395, -80.2916
2690.000000, 109.827, -83.1435
2720.000000, 110.183, -85.7186
2760.000000, 110.646, -90.0560
2800.000000, 111.036, -95.5927
2850.000000, 111.063, -104.3935
2900.000000, 110.385, -109.2698
2950.000000, 110.259, -108.6019
3000.000000, 110.808, -110.5733
3040.000000, 111.266, -114.9837
3070.000000, 111.456, -119.3060
3110.000000, 111.524, -124.9954
3150.000000, 111.563, -130.6589
3200.000000, 111.434, -138.9973
3250.000000, 111.015, -147.6266
3300.000000, 110.220, -156.2914
3350.000000, 109.046, -163.1970
3400.000000, 107.664, -167.7262
3450.000000, 106.280, -170.0297
3500.000000, 104.848, -172.1364
3550.000000, 102.984, -171.5333
3600.000000, 101.018, -161.8382
3650.000000, 100.286, -143.6651
3700.000000, 100.957, -132.1474
3750.000000, 101.739, -127.5521
3820.000000, 102.770, -122.7057
3870.000000, 103.828, -119.5299
3950.000000, 106.054, -123.2762
4000.000000, 106.757, -132.9001
4060.000000, 106.147, -144.0146
4120.000000, 104.845, -142.9195
4180.000000, 105.085, -133.8605
4250.000000, 107.033, -131.6755
4310.000000, 108.833, -139.0735
4370.000000, 110.067, -152.4852
4440.000000, 110.514, -171.6483
4500.000000, 110.143, 171.6838
4550.000000, 109.336, 158.4771
4620.000000, 107.544, 144.3749
4680.000000, 106.113, 136.8625
4750.000000, 104.951, 127.4001
4820.000000, 103.637, 117.6279
4870.000000, 102.768, 112.8470
4940.000000, 102.252, 106.6223
5000.000000, 102.305, 98.8101
5080.000000, 102.643, 86.2256
5150.000000, 103.208, 74.0650
5220.000000, 103.950, 61.3774
5300.000000, 105.165, 46.7893
5380.000000, 106.499, 29.2116
5450.000000, 107.118, 11.8080
5520.000000, 107.108, -4.0989
5600.000000, 106.738, -18.3479
5700.000000, 106.169, -31.9238
5800.000000, 105.406, -41.6576
5900.000000, 104.645, -46.6073
6000.000000, 104.144, -48.3458
6080.000000, 103.977, -47.8712
6150.000000, 104.082, -46.8715
6220.000000, 104.357, -46.4678
6300.000000, 104.751, -46.5168
6400.000000, 105.365, -46.8231
6500.000000, 106.157, -47.7318
6600.000000, 107.118, -50.0765
6700.000000, 108.131, -54.6882
6800.000000, 109.084, -61.7133
6900.000000, 109.792, -71.6731
7000.000000, 109.941, -83.3700
7100.000000, 109.489, -94.0256
7200.000000, 108.678, -101.9503
7300.000000, 107.763, -107.1492
7400.000000, 106.871, -110.3032
7500.000000, 106.066, -111.8507
7620.000000, 105.291, -112.2019
7750.000000, 104.787, -111.3552
7880.000000, 104.598, -111.2317
8000.000000, 104.505, -113.1453
8120.000000, 104.367, -116.4532
8250.000000, 104.111, -121.5598
8380.000000, 103.633, -127.8043
8500.000000, 102.977, -133.7823
8620.000000, 102.218, -139.6985
8750.000000, 101.338, -148.1147
8850.000000, 100.389, -156.9839
9000.000000, 98.039, -172.2495
9120.000000, 95.205, 175.3613
9250.000000, 91.034, 160.9136
9380.000000, 86.307, 130.3998
9500.000000, 85.791, -27.7283
9620.000000, 87.740, -47.7780
9750.000000, 88.628, -59.3306
9880.000000, 88.685, -60.8494
10000.000000, 88.828, -56.4481
10150.000000, 89.401, -50.1610
10300.000000, 90.175, -45.9077
10440.000000, 90.929, -44.0637
10600.000000, 91.604, -44.5023
10750.000000, 91.997, -45.5880
10900.000000, 92.271, -46.7203
11060.000000, 92.477, -48.5156
11200.000000, 92.545, -50.5349
11380.000000, 92.530, -53.3871
11500.000000, 92.488, -55.7881
11720.000000, 92.531, -61.0327
11800.000000, 92.731, -64.5851
12060.000000, 93.178, -93.8877
12200.000000, 92.518, -121.9769
12410.000000, 89.827, 179.2523
12500.000000, 88.426, 149.5712
12650.000000, 86.822, 106.5781
12800.000000, 86.564, 80.0665
13150.000000, 87.612, 54.3811
13200.000000, 87.753, 52.3584
13400.000000, 88.069, 44.4114
13600.000000, 87.685, 37.7015
13800.000000, 86.809, 36.2119
14000.000000, 86.057, 40.7250
14300.000000, 86.175, 49.6736
14500.000000, 86.671, 47.8048
14750.000000, 86.637, 35.7256
15000.000000, 84.820, 15.8456
15250.000000, 80.412, -4.6868
15500.000000, 77.056, -110.3931
15750.000000, 81.858, 167.0676
16000.000000, 86.278, 149.6688
16250.000000, 88.422, 129.4546
16500.000000, 88.640, 114.4087
16750.000000, 88.161, 108.6101
17000.000000, 87.490, 109.7211
17250.000000, 87.355, 121.0839
17500.000000, 88.240, 130.5026
17750.000000, 89.255, 132.6395
18000.000000, 89.934, 131.0112
18250.000000, 90.012, 127.6205
18500.000000, 89.582, 129.1649
18750.000000, 89.621, 138.0187
19000.000000, 90.223, 140.6785
19250.000000, 90.480, 136.4604
19500.000000, 90.146, 130.3922
19750.000000, 89.268, 124.0205
20000.000000, 87.845, 118.3975
20300.000000, 85.581, 114.5282
20600.000000, 83.121, 114.0907
20900.000000, 80.739, 116.2534
21200.000000, 78.476, 118.7479
21400.000000, 76.940, 119.0001
21800.000000, 72.698, 111.8934
22000.000000, 69.473, 109.2279
22400.000000, 60.860, 125.3066
22700.000000, 53.172, 140.3428
23000.000000, 45.497, 135.8873
23300.000000, 40.727, 147.7059
23600.000000, 39.457, 79.1201
24000.000000, 38.917, -160.7244
