* Measurement data measured by REW V5.31
* Source: Headset (DS by VECLAN.COM), MICROPHONE (Master Volume), L, volume: 1.000. Timing signal peak level -8.3 dBFS, measurement signal peak level -8.3 dBFS
* Format: 2M Log Swept Sine, 1 sweep at -7.1 dBFS using an acoustic timing reference
* Dated: Apr 14, 2024 6:02:22 PM
* REW Settings:
*  C-weighting compensation: Off
*  Target level: 85.0 dB
* Note: ; Delay -0.0619 ms (-21 mm, -0.84 in) using estimated IR delay relative to Acoustic reference played from HEADPHONE R with no timing offset
* Measurement: Pink headset R1
* Smoothing: 1/24 octave
* Frequency Step: 1/48 octave
* Start Frequency: 1.000 Hz
*
* Freq(Hz), SPL(dB), Phase(degrees)
1.000000, 67.518, 10.8404
1.015000, 67.555, 10.9654
1.030000, 67.591, 11.0909
1.044000, 67.625, 11.2086
1.060000, 67.663, 11.3440
1.075000, 67.699, 11.4718
1.090000, 67.734, 11.6006
1.106000, 67.773, 11.7395
1.120000, 67.809, 11.8630
1.138000, 67.861, 12.0245
1.150000, 67.898, 12.1338
1.172000, 67.970, 12.3303
1.180000, 67.998, 12.3959
1.206000, 68.090, 12.6115
1.220000, 68.141, 12.7285
1.241000, 68.216, 12.9045
1.250000, 68.248, 12.9799
1.265000, 68.300, 13.1054
1.280000, 68.350, 13.2304
1.315000, 68.457, 13.5183
1.320000, 68.470, 13.5588
1.340000, 68.520, 13.7191
1.360000, 68.561, 13.8770
1.380000, 68.591, 13.9927
1.400000, 68.610, 14.0890
1.430000, 68.613, 14.2227
1.450000, 68.596, 14.3036
1.475000, 68.551, 14.3946
1.500000, 68.478, 14.4752
1.525000, 68.379, 14.5470
1.550000, 68.259, 14.6116
1.575000, 68.119, 14.6488
1.600000, 67.964, 14.6426
1.625000, 67.796, 14.6333
1.650000, 67.619, 14.6217
1.675000, 67.437, 14.6086
1.700000, 67.253, 14.5950
1.725000, 67.069, 14.5813
1.750000, 66.891, 14.5683
1.775000, 66.720, 14.5394
1.800000, 66.560, 14.4786
1.825000, 66.414, 14.4193
1.850000, 66.279, 14.3564
1.875000, 66.150, 14.2855
1.900000, 66.026, 14.2066
1.925000, 65.904, 14.1212
1.950000, 65.786, 14.0316
1.975000, 65.669, 13.9230
2.000000, 65.555, 13.7807
2.030000, 65.420, 13.6126
2.060000, 65.287, 13.4478
2.090000, 65.155, 13.2887
2.120000, 65.024, 13.1376
2.140000, 64.936, 13.0422
2.180000, 64.760, 12.8449
2.200000, 64.671, 12.7320
2.240000, 64.495, 12.5019
2.270000, 64.364, 12.3192
2.300000, 64.234, 12.1302
2.330000, 64.106, 11.9384
2.360000, 63.978, 11.7471
2.400000, 63.808, 11.4514
2.430000, 63.681, 11.2335
2.470000, 63.511, 10.9641
2.500000, 63.383, 10.7826
2.540000, 63.212, 10.5735
2.580000, 63.040, 10.3806
2.620000, 62.866, 10.1644
2.650000, 62.735, 10.0071
2.690000, 62.560, 9.8052
2.720000, 62.429, 9.6631
2.760000, 62.254, 9.4931
2.800000, 62.079, 9.3101
2.850000, 61.861, 9.1252
2.900000, 61.644, 9.0106
2.950000, 61.428, 8.9744
3.000000, 61.209, 8.9725
3.040000, 61.033, 8.9995
3.070000, 60.901, 9.0422
3.110000, 60.725, 9.1289
3.150000, 60.553, 9.2497
3.200000, 60.343, 9.4191
3.250000, 60.142, 9.6312
3.300000, 59.951, 9.9083
3.350000, 59.768, 10.2688
3.400000, 59.590, 10.6815
3.450000, 59.419, 11.1494
3.500000, 59.257, 11.6659
3.550000, 59.107, 12.2108
3.600000, 58.971, 12.7368
3.650000, 58.852, 13.2469
3.700000, 58.749, 13.7701
3.750000, 58.663, 14.3344
3.820000, 58.566, 15.1322
3.870000, 58.512, 15.6844
3.950000, 58.450, 16.4665
4.000000, 58.426, 16.8307
4.060000, 58.411, 17.1485
4.120000, 58.418, 17.3947
4.180000, 58.443, 17.5696
4.250000, 58.487, 17.6296
4.310000, 58.530, 17.5580
4.370000, 58.573, 17.3441
4.440000, 58.623, 16.8774
4.500000, 58.670, 16.3421
4.550000, 58.712, 15.8186
4.620000, 58.770, 14.9562
4.680000, 58.814, 14.1245
4.750000, 58.855, 13.0515
4.820000, 58.883, 11.8149
4.870000, 58.899, 10.8339
4.940000, 58.913, 9.3640
5.000000, 58.915, 8.0352
5.080000, 58.901, 6.2196
5.150000, 58.872, 4.6004
5.220000, 58.826, 2.8697
5.300000, 58.756, 0.7764
5.380000, 58.666, -1.3518
5.450000, 58.570, -3.1930
5.520000, 58.456, -4.9843
5.600000, 58.305, -7.0623
5.700000, 58.087, -9.7111
5.800000, 57.836, -12.2566
5.900000, 57.551, -14.5918
6.000000, 57.232, -16.7858
6.080000, 56.954, -18.4520
6.150000, 56.699, -19.7735
6.220000, 56.432, -20.9310
6.300000, 56.112, -22.0183
6.400000, 55.688, -23.0523
6.500000, 55.258, -23.7123
6.600000, 54.844, -23.9044
6.700000, 54.440, -23.5342
6.800000, 54.055, -22.5896
6.900000, 53.730, -21.1771
7.000000, 53.498, -19.3463
7.100000, 53.359, -17.0803
7.200000, 53.308, -14.5458
7.300000, 53.355, -12.0430
7.400000, 53.514, -9.7042
7.500000, 53.777, -7.5671
7.620000, 54.179, -5.4744
7.750000, 54.672, -3.9825
7.880000, 55.221, -3.1958
8.000000, 55.743, -3.0431
8.120000, 56.243, -3.4323
8.250000, 56.763, -4.3456
8.380000, 57.248, -5.6441
8.500000, 57.652, -7.1526
8.620000, 58.015, -8.9073
8.750000, 58.359, -10.9674
8.850000, 58.586, -12.6405
9.000000, 58.865, -15.2900
9.120000, 59.034, -17.4126
9.250000, 59.162, -19.6675
9.380000, 59.233, -21.8805
9.500000, 59.252, -23.7678
9.620000, 59.228, -25.4448
9.750000, 59.156, -27.0373
9.880000, 59.046, -28.2908
10.000000, 58.913, -29.0650
10.150000, 58.726, -29.5806
10.300000, 58.563, -29.5415
10.440000, 58.451, -29.0045
10.600000, 58.403, -28.0825
10.750000, 58.470, -27.1497
10.900000, 58.628, -26.3612
11.060000, 58.869, -26.0886
11.200000, 59.123, -26.4003
11.380000, 59.437, -27.5561
11.500000, 59.611, -28.8143
11.720000, 59.815, -31.7828
11.800000, 59.837, -33.0183
12.060000, 59.696, -37.2479
12.200000, 59.468, -39.3290
12.410000, 58.932, -41.7192
12.500000, 58.637, -42.2300
12.650000, 58.073, -42.1958
12.800000, 57.511, -40.8221
13.150000, 56.727, -31.9818
13.200000, 56.742, -30.3827
13.400000, 57.183, -24.3967
13.600000, 58.020, -20.8004
13.800000, 59.019, -20.2748
14.000000, 59.929, -22.4308
14.300000, 60.876, -29.2453
14.500000, 61.163, -35.2734
14.750000, 61.102, -43.5873
15.000000, 60.544, -52.2452
15.250000, 59.431, -60.4639
15.500000, 57.633, -67.1261
15.750000, 54.992, -69.9362
16.000000, 51.507, -62.0128
16.250000, 49.666, -30.5557
16.500000, 51.106, 0.7651
16.750000, 53.656, 9.0497
17.000000, 55.565, 8.1877
17.250000, 56.614, 4.5808
17.500000, 57.056, 0.6908
17.750000, 57.071, -2.2167
18.000000, 56.833, -3.4489
18.250000, 56.536, -2.7006
18.500000, 56.378, -0.3624
18.750000, 56.454, 2.5426
19.000000, 56.741, 4.8859
19.250000, 57.109, 6.0246
19.500000, 57.447, 6.0392
19.750000, 57.693, 5.2577
20.000000, 57.835, 4.0624
20.299999, 57.894, 2.4058
20.600000, 57.873, 0.7079
20.900000, 57.796, -1.0345
21.200001, 57.661, -2.8728
21.400000, 57.530, -4.1114
21.799999, 57.161, -6.3324
22.000000, 56.932, -7.1605
22.400000, 56.442, -7.9819
22.700001, 56.110, -7.7975
23.000000, 55.850, -7.0478
23.299999, 55.674, -5.8930
23.600000, 55.589, -4.4000
24.000000, 55.649, -2.0645
24.299999, 55.849, -0.4229
24.700001, 56.282, 0.8761
25.000000, 56.630, 0.8986
25.400000, 56.956, 0.0116
25.799999, 57.039, -0.7072
26.200001, 56.992, 0.0577
26.500000, 57.041, 1.7339
26.900000, 57.387, 4.1589
27.200001, 57.801, 4.9124
27.600000, 58.282, 3.8598
28.000000, 58.417, 1.4163
28.500000, 57.995, -0.6162
29.000000, 57.332, 1.6348
29.500000, 57.234, 7.0412
30.000000, 57.745, 10.0944
30.400000, 58.098, 9.7089
30.700001, 58.171, 8.7557
31.100000, 58.059, 8.0690
31.500000, 57.940, 8.8976
32.000000, 58.172, 10.8857
32.500000, 58.773, 10.9444
33.000000, 59.299, 8.2858
33.500000, 59.498, 4.6339
34.000000, 59.437, 1.9181
34.500000, 59.341, 0.9495
35.000000, 59.396, 1.2148
35.500000, 59.622, 1.6155
36.000000, 59.916, 1.4593
36.500000, 60.159, 0.7301
37.000000, 60.279, -0.1000
37.500000, 60.285, -0.4122
38.200001, 60.277, 0.5154
38.700001, 60.372, 1.5566
39.500000, 60.616, 2.2664
40.000000, 60.711, 2.0278
40.599998, 60.714, 1.5471
41.200001, 60.614, 1.4648
41.799999, 60.503, 2.3332
42.500000, 60.587, 4.2016
43.099998, 60.884, 5.0681
43.700001, 61.198, 4.6887
44.400002, 61.460, 3.8308
45.000000, 61.727, 3.2043
45.500000, 62.010, 2.1552
46.200001, 62.289, -0.5173
46.799999, 62.289, -2.7922
47.500000, 62.177, -3.8896
48.200001, 62.199, -3.8567
48.700001, 62.273, -3.8051
49.400002, 62.391, -3.4678
50.000000, 62.583, -2.7624
50.799999, 63.004, -2.4577
51.500000, 63.315, -3.0895
52.200001, 63.516, -3.4452
53.000000, 63.778, -3.2358
53.799999, 64.063, -3.1422
54.500000, 64.283, -3.0090
55.200001, 64.530, -2.9079
56.000000, 64.787, -3.4115
57.000000, 64.938, -4.1923
58.000000, 65.072, -4.5255
59.000000, 65.187, -4.9641
60.000000, 65.383, -4.6030
60.799999, 65.735, -4.8221
61.500000, 66.017, -6.0179
62.200001, 66.186, -7.1560
63.000000, 66.393, -7.4863
64.000000, 66.852, -7.9782
65.000000, 67.225, -9.6082
66.000000, 67.437, -10.6537
67.000000, 67.662, -11.0556
68.000000, 67.921, -11.2638
69.000000, 68.254, -11.9463
70.000000, 68.505, -13.5510
71.000000, 68.651, -14.9910
72.000000, 68.804, -16.2822
73.000000, 68.914, -17.5867
74.000000, 68.990, -18.4398
75.000000, 69.072, -18.7769
76.199997, 69.216, -18.4325
77.500000, 69.533, -17.6098
78.800003, 69.953, -17.4578
80.000000, 70.364, -17.6322
81.199997, 70.835, -18.4119
82.500000, 71.288, -20.0434
83.800003, 71.679, -21.7786
85.000000, 72.018, -23.3314
86.199997, 72.332, -24.9091
87.500000, 72.648, -26.3667
88.500000, 72.906, -27.4121
90.000000, 73.293, -28.9481
91.199997, 73.627, -30.1924
92.500000, 73.999, -31.5903
93.800003, 74.415, -33.0916
95.000000, 74.808, -34.8669
96.199997, 75.175, -36.8644
97.500000, 75.559, -39.0763
98.800003, 75.952, -41.3933
100.000000, 76.316, -43.7089
101.500000, 76.758, -46.7033
103.000000, 77.214, -49.6801
104.400002, 77.665, -52.6803
106.000000, 78.156, -56.6228
107.500000, 78.558, -60.7317
109.000000, 78.887, -65.0937
110.599998, 79.203, -69.9146
112.000000, 79.441, -74.5390
113.800003, 79.690, -80.6914
115.000000, 79.865, -85.0488
117.199997, 80.097, -93.9017
118.000000, 80.143, -97.1408
120.599998, 80.181, -107.5672
122.000000, 80.123, -113.1127
124.099998, 79.896, -121.8584
125.000000, 79.732, -125.7110
126.500000, 79.381, -132.1659
128.000000, 78.939, -138.4977
131.500000, 77.512, -151.7781
132.000000, 77.257, -153.4138
134.000000, 76.121, -159.0291
136.000000, 74.897, -162.8727
138.000000, 73.713, -164.3466
140.000000, 72.790, -163.4112
143.000000, 71.985, -162.3088
145.000000, 71.427, -163.9312
147.500000, 70.417, -165.4843
150.000000, 69.478, -164.7075
152.500000, 68.849, -163.1407
155.000000, 68.492, -161.6555
157.500000, 68.337, -159.8065
160.000000, 68.305, -158.5779
162.500000, 68.045, -158.8364
165.000000, 67.765, -159.3245
167.500000, 67.599, -160.7858
170.000000, 67.402, -162.9744
172.500000, 66.892, -164.1053
175.000000, 66.269, -163.6416
177.500000, 65.672, -163.5528
180.000000, 65.039, -163.8652
182.500000, 64.408, -162.6276
185.000000, 63.865, -160.0072
187.500000, 63.350, -157.0865
190.000000, 62.905, -154.8465
192.500000, 62.624, -153.4143
195.000000, 62.536, -152.2353
197.500000, 62.524, -151.2458
200.000000, 62.452, -150.3548
203.000000, 62.313, -148.9069
206.000000, 62.170, -147.2437
209.000000, 61.968, -145.6625
212.000000, 61.725, -145.2470
214.000000, 61.588, -146.1753
218.000000, 61.246, -152.3751
220.000000, 60.726, -157.7475
224.000000, 57.970, -161.8855
227.000000, 55.437, -143.5119
230.000000, 54.537, -125.0322
233.000000, 54.384, -116.9519
236.000000, 54.158, -110.9335
240.000000, 54.100, -98.6228
243.000000, 54.660, -87.0656
247.000000, 55.563, -75.3309
250.000000, 56.255, -68.2284
254.000000, 57.269, -61.4750
258.000000, 58.473, -56.0959
262.000000, 59.738, -50.1326
265.000000, 60.813, -45.4462
269.000000, 62.585, -41.9098
272.000000, 64.087, -41.1509
276.000000, 66.124, -43.7649
280.000000, 68.064, -51.8756
285.000000, 69.683, -68.7045
290.000000, 69.640, -91.0987
295.000000, 67.824, -112.2981
300.000000, 64.612, -131.1149
304.000000, 61.310, -149.0221
307.000000, 59.336, 175.9313
311.000000, 60.327, 63.3733
315.000000, 63.590, 30.4998
320.000000, 66.511, 7.5697
325.000000, 67.944, -8.6089
330.000000, 68.573, -18.6348
335.000000, 68.901, -24.3319
340.000000, 69.145, -27.5741
345.000000, 69.373, -29.3844
350.000000, 69.642, -30.6068
355.000000, 69.932, -31.5901
360.000000, 70.184, -32.3371
365.000000, 70.424, -32.6099
370.000000, 70.782, -32.8054
375.000000, 71.257, -33.6125
382.000000, 71.756, -34.8157
387.000000, 71.789, -34.6090
395.000000, 71.859, -34.1612
400.000000, 72.043, -32.9986
406.000000, 72.297, -32.3464
412.000000, 72.557, -31.6260
418.000000, 72.784, -30.8755
425.000000, 73.080, -29.9171
431.000000, 73.373, -28.8744
437.000000, 73.706, -27.8518
444.000000, 74.126, -26.5714
450.000000, 74.511, -25.5383
455.000000, 74.843, -24.6432
462.000000, 75.309, -23.6104
468.000000, 75.728, -22.7809
475.000000, 76.266, -21.7903
482.000000, 76.887, -21.1458
487.000000, 77.402, -20.5633
494.000000, 78.403, -20.5176
500.000000, 79.206, -24.2642
508.000000, 79.619, -32.3204
515.000000, 79.363, -40.2737
522.000000, 78.756, -48.0472
530.000000, 78.341, -56.4684
538.000000, 78.536, -61.7239
545.000000, 78.776, -63.3448
552.000000, 78.855, -64.7145
560.000000, 78.769, -65.7440
570.000000, 78.452, -67.1645
580.000000, 78.078, -68.4935
590.000000, 77.480, -69.1363
600.000000, 76.727, -67.8423
608.000000, 76.116, -65.0430
615.000000, 75.659, -61.4161
622.000000, 75.315, -57.0486
630.000000, 75.096, -51.4694
640.000000, 75.122, -43.7339
650.000000, 75.476, -36.2547
660.000000, 76.106, -29.9368
670.000000, 76.825, -24.6980
680.000000, 77.620, -20.5554
690.000000, 78.409, -17.3431
700.000000, 79.153, -14.9792
710.000000, 79.910, -13.2610
720.000000, 80.641, -11.9602
730.000000, 81.323, -11.0533
740.000000, 81.975, -10.3331
750.000000, 82.609, -9.6259
762.000000, 83.364, -9.3143
775.000000, 84.122, -9.2358
788.000000, 84.846, -9.0848
800.000000, 85.522, -9.3790
812.000000, 86.131, -10.2239
825.000000, 86.704, -11.1766
838.000000, 87.241, -11.7636
850.000000, 87.762, -11.9291
862.000000, 88.314, -12.3299
875.000000, 88.901, -13.0760
885.000000, 89.331, -13.6675
900.000000, 89.997, -14.7382
912.000000, 90.515, -15.7902
925.000000, 91.057, -16.9283
938.000000, 91.593, -18.2175
950.000000, 92.092, -19.4393
962.000000, 92.605, -20.9196
975.000000, 93.133, -22.9430
988.000000, 93.615, -25.2059
1000.000000, 94.021, -27.4912
1015.000000, 94.457, -30.3781
1030.000000, 94.862, -33.1371
1044.000000, 95.191, -35.7858
1060.000000, 95.548, -38.4797
1075.000000, 95.914, -41.2906
1090.000000, 96.224, -44.4957
1106.000000, 96.476, -47.8711
1120.000000, 96.650, -50.6115
1138.000000, 96.834, -54.0925
1150.000000, 96.917, -56.3354
1172.000000, 97.011, -60.1110
1180.000000, 97.027, -61.4100
1206.000000, 97.050, -65.1984
1220.000000, 97.032, -66.9486
1241.000000, 96.998, -69.0164
1250.000000, 96.993, -69.7664
1265.000000, 96.993, -70.9712
1280.000000, 97.001, -72.0363
1315.000000, 97.047, -74.3647
1320.000000, 97.052, -74.6733
1340.000000, 97.072, -75.7507
1360.000000, 97.077, -76.7112
1380.000000, 97.087, -77.6335
1400.000000, 97.119, -78.4220
1430.000000, 97.203, -79.6910
1450.000000, 97.266, -80.5804
1475.000000, 97.310, -81.9579
1500.000000, 97.198, -83.6469
1525.000000, 96.839, -83.4994
1550.000000, 96.797, -79.9678
1575.000000, 97.213, -78.0752
1600.000000, 97.618, -78.2071
1625.000000, 97.938, -78.8727
1650.000000, 98.205, -79.7287
1675.000000, 98.434, -80.6615
1700.000000, 98.634, -81.6156
1725.000000, 98.810, -82.6356
1750.000000, 98.948, -83.6942
1775.000000, 99.032, -84.6595
1800.000000, 99.079, -85.1948
1825.000000, 99.140, -85.1843
1850.000000, 99.268, -84.8229
1875.000000, 99.479, -84.5085
1900.000000, 99.726, -84.5363
1925.000000, 99.963, -84.7869
1950.000000, 100.191, -84.9016
1975.000000, 100.474, -84.6662
2000.000000, 100.899, -84.5903
2030.000000, 101.465, -86.1158
2060.000000, 101.860, -88.8078
2090.000000, 102.101, -91.3937
2120.000000, 102.277, -93.6309
2140.000000, 102.388, -94.9498
2180.000000, 102.651, -97.3716
2200.000000, 102.809, -98.7465
2240.000000, 103.105, -102.6005
2270.000000, 103.084, -106.4924
2300.000000, 102.732, -108.8582
2330.000000, 102.490, -108.2335
2360.000000, 102.605, -107.5175
2400.000000, 102.931, -108.2848
2430.000000, 103.181, -109.5526
2470.000000, 103.502, -112.2740
2500.000000, 103.560, -115.2996
2540.000000, 103.384, -118.0389
2580.000000, 103.412, -119.1722
2620.000000, 103.634, -120.7175
2650.000000, 103.787, -122.5350
2690.000000, 103.917, -125.0992
2720.000000, 103.993, -127.1794
2760.000000, 104.042, -130.0177
2800.000000, 104.069, -132.6101
2850.000000, 104.242, -135.8043
2900.000000, 104.461, -141.0621
2950.000000, 104.391, -147.7964
3000.000000, 104.012, -154.1127
3040.000000, 103.603, -158.7371
3070.000000, 103.240, -161.9200
3110.000000, 102.720, -165.8718
3150.000000, 102.160, -169.6005
3200.000000, 101.402, -174.2732
3250.000000, 100.536, -179.1053
3300.000000, 99.496, 175.6942
3350.000000, 98.163, 170.1452
3400.000000, 96.343, 164.6011
3450.000000, 93.752, 161.1591
3500.000000, 90.256, 168.6448
3550.000000, 87.792, -152.9835
3600.000000, 88.768, -125.0326
3650.000000, 90.273, -116.6345
3700.000000, 91.289, -111.2784
3750.000000, 92.550, -104.4849
3820.000000, 94.988, -101.3193
3870.000000, 96.377, -105.6408
3950.000000, 96.805, -116.9243
4000.000000, 96.119, -118.3438
4060.000000, 95.970, -113.2947
4120.000000, 96.764, -109.5710
4180.000000, 97.947, -109.2680
4250.000000, 99.414, -113.6489
4310.000000, 100.460, -121.2296
4370.000000, 101.224, -131.3951
4440.000000, 101.689, -147.3764
4500.000000, 100.984, -163.7072
4550.000000, 99.418, -173.8312
4620.000000, 97.121, 179.6722
4680.000000, 95.627, 174.6901
4750.000000, 93.818, 170.1130
4820.000000, 92.526, 166.8816
4870.000000, 92.132, 162.0085
4940.000000, 92.356, 149.5535
5000.000000, 93.385, 131.0032
5080.000000, 94.688, 94.6966
5150.000000, 95.098, 61.9807
5220.000000, 95.292, 35.8601
5300.000000, 95.554, 14.7896
5380.000000, 95.966, 1.5798
5450.000000, 96.657, -6.0381
5520.000000, 97.508, -13.3274
5600.000000, 98.123, -22.0240
5700.000000, 98.383, -29.3387
5800.000000, 98.825, -33.4696
5900.000000, 99.251, -37.4900
6000.000000, 99.554, -40.0634
6080.000000, 99.890, -40.6463
6150.000000, 100.389, -40.8051
6220.000000, 101.055, -41.8378
6300.000000, 101.800, -44.6849
6400.000000, 102.493, -49.4489
6500.000000, 102.982, -54.0424
6600.000000, 103.452, -57.9888
6700.000000, 104.039, -62.2611
6800.000000, 104.650, -67.9647
6900.000000, 105.119, -75.2133
7000.000000, 105.347, -83.3228
7100.000000, 105.314, -91.9285
7200.000000, 104.908, -100.5949
7300.000000, 104.108, -107.8244
7400.000000, 103.080, -112.6390
7500.000000, 102.036, -114.9097
7620.000000, 100.979, -115.2319
7750.000000, 100.210, -113.5621
7880.000000, 99.892, -111.7756
8000.000000, 99.830, -112.1135
8120.000000, 99.757, -114.3939
8250.000000, 99.543, -118.0738
8380.000000, 99.278, -122.7039
8500.000000, 98.921, -128.4319
8620.000000, 98.377, -135.2556
8750.000000, 97.571, -144.2415
8850.000000, 96.724, -152.7560
9000.000000, 94.836, -168.5607
9120.000000, 92.624, 175.0015
9250.000000, 89.252, 149.6445
9380.000000, 85.723, 82.1384
9500.000000, 84.974, -13.8011
9620.000000, 85.671, -42.4983
9750.000000, 85.897, -56.3590
9880.000000, 85.621, -60.7606
10000.000000, 85.525, -59.5828
10150.000000, 85.839, -57.8680
10300.000000, 85.976, -58.4421
10440.000000, 85.795, -58.0955
10600.000000, 85.644, -56.2173
10750.000000, 85.632, -55.0784
10900.000000, 85.532, -55.1648
11060.000000, 85.221, -55.2275
11200.000000, 84.946, -54.5303
11380.000000, 84.787, -54.9788
11500.000000, 84.591, -57.0883
11720.000000, 84.019, -62.3098
11800.000000, 84.005, -65.3708
12060.000000, 85.451, -94.1504
12200.000000, 86.825, -128.4377
12410.000000, 89.078, 165.1964
12500.000000, 89.834, 139.6899
12650.000000, 90.425, 105.2323
12800.000000, 90.143, 80.0031
13150.000000, 87.342, 51.2744
13200.000000, 86.817, 50.9547
13400.000000, 85.602, 60.1617
13600.000000, 86.631, 67.3243
13800.000000, 87.409, 64.0386
14000.000000, 87.294, 61.2695
14300.000000, 87.424, 63.0806
14500.000000, 87.987, 60.8011
14750.000000, 88.263, 52.4280
15000.000000, 87.638, 40.2307
15250.000000, 85.845, 26.5370
15500.000000, 82.455, 15.0269
15750.000000, 77.137, 18.7139
16000.000000, 72.550, 76.1854
16250.000000, 74.331, 123.5447
16500.000000, 77.639, 137.0653
16750.000000, 80.323, 141.6863
17000.000000, 82.657, 142.9165
17250.000000, 84.358, 138.9438
17500.000000, 84.853, 134.4547
17750.000000, 85.046, 136.3680
18000.000000, 86.066, 140.0033
18250.000000, 87.149, 137.2338
18500.000000, 87.201, 131.0048
18750.000000, 86.366, 129.5394
19000.000000, 85.929, 135.2737
19250.000000, 85.977, 140.5234
19500.000000, 85.566, 144.8262
19750.000000, 85.030, 151.6422
20000.000000, 84.699, 154.8450
20300.000000, 83.363, 153.7151
20600.000000, 81.333, 153.0959
20900.000000, 78.708, 150.7490
21200.000000, 74.800, 149.9016
21400.000000, 71.523, 154.7826
21800.000000, 65.411, -173.5469
22000.000000, 62.945, -155.0621
22400.000000, 56.499, -127.6876
22700.000000, 50.029, -111.5941
23000.000000, 42.766, -102.6382
23300.000000, 35.976, -40.1869
23600.000000, 32.508, -12.7251
24000.000000, 31.791, 141.0287
