* Measurement data measured by REW V5.31
* Source: Headset (DS by VECLAN.COM), MICROPHONE (Master Volume), L, volume: 1.000. Timing signal peak level -8.0 dBFS, measurement signal peak level -7.9 dBFS
* Format: 2M Log Swept Sine, 1 sweep at -7.1 dBFS using an acoustic timing reference
* Dated: Apr 14, 2024 6:06:20 PM
* REW Settings:
*  C-weighting compensation: Off
*  Target level: 85.0 dB
* Note: ; Delay -0.0636 ms (-22 mm, -0.86 in) using estimated IR delay relative to Acoustic reference played from HEADPHONE R with no timing offset
* Measurement: Pink headset R5
* Smoothing: 1/24 octave
* Frequency Step: 1/48 octave
* Start Frequency: 1.000 Hz
*
* Freq(Hz), SPL(dB), Phase(degrees)
1.000000, 65.546, 10.7558
1.015000, 65.571, 11.0283
1.030000, 65.596, 11.3037
1.044000, 65.622, 11.5636
1.060000, 65.651, 11.8641
1.075000, 65.681, 12.1491
1.090000, 65.711, 12.4381
1.106000, 65.746, 12.7531
1.120000, 65.781, 13.0389
1.138000, 65.832, 13.4219
1.150000, 65.870, 13.6862
1.172000, 65.945, 14.1801
1.180000, 65.974, 14.3574
1.206000, 66.073, 14.9467
1.220000, 66.129, 15.2700
1.241000, 66.214, 15.7597
1.250000, 66.250, 15.9705
1.265000, 66.311, 16.3222
1.280000, 66.371, 16.6729
1.315000, 66.503, 17.4808
1.320000, 66.521, 17.5943
1.340000, 66.588, 18.0420
1.360000, 66.649, 18.4786
1.380000, 66.701, 18.8623
1.400000, 66.743, 19.2141
1.430000, 66.783, 19.7041
1.450000, 66.794, 20.0030
1.475000, 66.785, 20.3498
1.500000, 66.753, 20.6847
1.525000, 66.700, 21.0159
1.550000, 66.627, 21.3427
1.575000, 66.538, 21.6412
1.600000, 66.437, 21.8923
1.625000, 66.326, 22.1327
1.650000, 66.209, 22.3606
1.675000, 66.087, 22.5738
1.700000, 65.966, 22.7706
1.725000, 65.847, 22.9490
1.750000, 65.733, 23.1073
1.775000, 65.629, 23.2268
1.800000, 65.536, 23.2897
1.825000, 65.457, 23.3292
1.850000, 65.390, 23.3476
1.875000, 65.331, 23.3512
1.900000, 65.278, 23.3429
1.925000, 65.230, 23.3239
1.950000, 65.186, 23.2956
1.975000, 65.146, 23.2413
2.000000, 65.109, 23.1455
2.030000, 65.068, 23.0203
2.060000, 65.029, 22.8820
2.090000, 64.992, 22.7299
2.120000, 64.956, 22.5633
2.140000, 64.932, 22.4436
2.180000, 64.882, 22.1605
2.200000, 64.857, 21.9860
2.240000, 64.807, 21.6050
2.270000, 64.771, 21.2925
2.300000, 64.738, 20.9620
2.330000, 64.706, 20.6184
2.360000, 64.675, 20.2654
2.400000, 64.634, 19.7387
2.430000, 64.604, 19.3351
2.470000, 64.562, 18.7992
2.500000, 64.530, 18.4012
2.540000, 64.484, 17.8773
2.580000, 64.436, 17.3332
2.620000, 64.386, 16.7264
2.650000, 64.348, 16.2530
2.690000, 64.297, 15.6049
2.720000, 64.258, 15.1129
2.760000, 64.204, 14.4603
2.800000, 64.148, 13.7794
2.850000, 64.075, 12.9534
2.900000, 63.996, 12.1763
2.950000, 63.912, 11.4413
3.000000, 63.823, 10.6732
3.040000, 63.748, 10.0379
3.070000, 63.690, 9.5612
3.110000, 63.611, 8.9330
3.150000, 63.529, 8.3226
3.200000, 63.424, 7.5691
3.250000, 63.316, 6.8632
3.300000, 63.206, 6.2288
3.350000, 63.091, 5.6448
3.400000, 62.971, 5.0536
3.450000, 62.849, 4.4761
3.500000, 62.724, 3.9353
3.550000, 62.598, 3.4430
3.600000, 62.473, 2.9849
3.650000, 62.351, 2.5876
3.700000, 62.228, 2.2652
3.750000, 62.105, 2.0081
3.820000, 61.931, 1.7045
3.870000, 61.809, 1.5368
3.950000, 61.625, 1.3552
4.000000, 61.520, 1.2713
4.060000, 61.404, 1.2228
4.120000, 61.298, 1.2621
4.180000, 61.201, 1.3682
4.250000, 61.099, 1.5100
4.310000, 61.025, 1.6400
4.370000, 60.962, 1.7463
4.440000, 60.906, 1.8184
4.500000, 60.874, 1.8940
4.550000, 60.856, 1.9623
4.620000, 60.842, 2.0056
4.680000, 60.837, 1.9827
4.750000, 60.836, 1.8616
4.820000, 60.842, 1.6153
4.870000, 60.854, 1.3880
4.940000, 60.875, 1.0137
5.000000, 60.895, 0.6241
5.080000, 60.914, 0.0063
5.150000, 60.921, -0.6303
5.220000, 60.923, -1.3939
5.300000, 60.918, -2.3783
5.380000, 60.901, -3.4270
5.450000, 60.871, -4.3828
5.520000, 60.826, -5.3569
5.600000, 60.757, -6.5511
5.700000, 60.644, -8.1388
5.800000, 60.501, -9.6970
5.900000, 60.324, -11.1603
6.000000, 60.113, -12.5857
6.080000, 59.921, -13.6992
6.150000, 59.741, -14.5891
6.220000, 59.551, -15.3771
6.300000, 59.319, -16.1304
6.400000, 59.006, -16.8875
6.500000, 58.685, -17.4446
6.600000, 58.371, -17.7435
6.700000, 58.065, -17.7343
6.800000, 57.767, -17.4344
6.900000, 57.498, -16.9547
7.000000, 57.275, -16.3407
7.100000, 57.096, -15.5671
7.200000, 56.957, -14.7085
7.300000, 56.853, -13.9310
7.400000, 56.787, -13.3018
7.500000, 56.758, -12.8069
7.620000, 56.745, -12.4022
7.750000, 56.725, -12.2826
7.880000, 56.698, -12.4954
8.000000, 56.650, -12.8140
8.120000, 56.559, -13.1589
8.250000, 56.412, -13.5614
8.380000, 56.226, -13.7698
8.500000, 56.020, -13.6044
8.620000, 55.786, -13.0764
8.750000, 55.549, -12.0222
8.850000, 55.401, -10.7909
9.000000, 55.244, -8.2928
9.120000, 55.213, -6.0035
9.250000, 55.317, -3.4531
9.380000, 55.549, -1.0004
9.500000, 55.839, 0.8301
9.620000, 56.190, 2.0927
9.750000, 56.615, 2.8716
9.880000, 57.025, 3.0322
10.000000, 57.359, 2.6516
10.150000, 57.711, 1.6290
10.300000, 57.966, 0.3121
10.440000, 58.108, -1.1131
10.600000, 58.169, -2.6710
10.750000, 58.133, -3.8387
10.900000, 58.028, -4.6513
11.060000, 57.878, -4.9016
11.200000, 57.733, -4.5696
11.380000, 57.597, -3.4432
11.500000, 57.564, -2.2979
11.720000, 57.646, 0.0787
11.800000, 57.729, 0.8747
12.060000, 58.132, 2.7726
12.200000, 58.379, 3.0948
12.410000, 58.720, 2.8088
12.500000, 58.831, 2.4590
12.650000, 58.956, 1.6447
12.800000, 59.001, 0.7605
13.150000, 58.787, -0.7069
13.200000, 58.729, -0.7503
13.400000, 58.459, -0.2996
13.600000, 58.214, 1.2049
13.800000, 58.085, 3.6506
14.000000, 58.148, 6.3670
14.300000, 58.585, 9.3739
14.500000, 58.988, 9.9170
14.750000, 59.441, 8.8748
15.000000, 59.708, 6.3312
15.250000, 59.710, 2.9444
15.500000, 59.418, -0.4380
15.750000, 58.843, -3.0611
16.000000, 58.051, -4.0597
16.250000, 57.197, -2.8353
16.500000, 56.500, 0.7864
16.750000, 56.189, 5.8084
17.000000, 56.297, 10.3803
17.250000, 56.669, 13.1617
17.500000, 57.086, 13.9324
17.750000, 57.409, 13.2305
18.000000, 57.586, 11.7181
18.250000, 57.623, 9.9506
18.500000, 57.560, 8.3545
18.750000, 57.445, 7.1317
19.000000, 57.329, 6.3262
19.250000, 57.246, 5.8069
19.500000, 57.213, 5.4323
19.750000, 57.226, 5.0356
20.000000, 57.274, 4.4867
20.299999, 57.347, 3.5109
20.600000, 57.400, 2.2512
20.900000, 57.391, 0.8948
21.200001, 57.299, -0.2125
21.400000, 57.196, -0.5622
21.799999, 57.002, 0.2343
22.000000, 56.993, 1.3929
22.400000, 57.345, 4.1099
22.700001, 57.930, 4.9975
23.000000, 58.620, 3.9032
23.299999, 59.219, 0.7972
23.600000, 59.580, -3.7154
24.000000, 59.559, -10.4143
24.299999, 59.150, -14.6893
24.700001, 58.210, -17.2747
25.000000, 57.480, -15.7208
25.400000, 57.097, -9.7877
25.799999, 57.644, -4.3978
26.200001, 58.554, -3.4500
26.500000, 59.094, -5.2471
26.900000, 59.433, -9.1467
27.200001, 59.397, -12.1118
27.600000, 59.042, -14.9006
28.000000, 58.491, -15.4331
28.500000, 57.875, -12.4409
29.000000, 57.745, -7.0705
29.500000, 58.123, -3.1189
30.000000, 58.527, -2.4348
30.400000, 58.553, -3.2198
30.700001, 58.349, -3.4593
31.100000, 57.900, -1.9078
31.500000, 57.587, 2.4110
32.000000, 57.906, 8.8646
32.500000, 58.779, 11.4134
33.000000, 59.496, 9.4449
33.500000, 59.751, 5.6618
34.000000, 59.652, 2.5035
34.500000, 59.475, 0.9247
35.000000, 59.429, 0.4019
35.500000, 59.521, 0.0420
36.000000, 59.676, -0.3504
36.500000, 59.883, -0.5887
37.000000, 60.172, -0.8319
37.500000, 60.495, -1.5347
38.200001, 60.780, -3.1447
38.700001, 60.802, -3.6804
39.500000, 60.871, -2.2771
40.000000, 61.113, -1.4068
40.599998, 61.393, -2.0615
41.200001, 61.357, -3.4940
41.799999, 61.085, -3.4051
42.500000, 61.013, -1.2686
43.099998, 61.248, -0.3734
43.700001, 61.450, -0.9031
44.400002, 61.582, -1.5695
45.000000, 61.765, -2.1275
45.500000, 61.900, -3.0635
46.200001, 61.864, -4.0006
46.799999, 61.766, -2.7895
47.500000, 61.977, 0.4430
48.200001, 62.542, 2.9421
48.700001, 63.027, 3.5584
49.400002, 63.677, 2.5601
50.000000, 64.041, 0.2007
50.799999, 64.087, -3.0733
51.500000, 63.941, -4.2501
52.200001, 63.927, -4.3086
53.000000, 64.057, -4.6084
53.799999, 64.222, -5.3622
54.500000, 64.340, -6.2868
55.200001, 64.363, -6.9160
56.000000, 64.382, -6.3528
57.000000, 64.681, -4.9323
58.000000, 65.097, -5.4282
59.000000, 65.249, -6.7958
60.000000, 65.434, -6.7673
60.799999, 65.811, -7.5690
61.500000, 66.071, -9.4289
62.200001, 66.222, -11.1471
63.000000, 66.402, -12.5319
64.000000, 66.590, -13.7382
65.000000, 66.798, -13.3957
66.000000, 67.181, -12.8208
67.000000, 67.559, -12.9375
68.000000, 67.892, -13.8457
69.000000, 68.067, -15.3945
70.000000, 68.157, -16.5777
71.000000, 68.281, -17.5900
72.000000, 68.418, -18.4953
73.000000, 68.574, -18.9121
74.000000, 68.773, -18.7584
75.000000, 69.019, -18.1378
76.199997, 69.435, -17.0087
77.500000, 70.013, -17.3160
78.800003, 70.387, -19.2026
80.000000, 70.644, -20.7930
81.199997, 70.907, -22.4506
82.500000, 71.190, -23.9137
83.800003, 71.528, -25.0878
85.000000, 71.816, -26.3006
86.199997, 72.056, -27.1268
87.500000, 72.398, -27.7693
88.500000, 72.715, -28.6937
90.000000, 73.194, -30.7522
91.199997, 73.558, -32.4714
92.500000, 73.977, -34.0754
93.800003, 74.422, -35.6180
95.000000, 74.842, -37.1915
96.199997, 75.233, -39.0379
97.500000, 75.634, -41.2633
98.800003, 76.012, -43.9326
100.000000, 76.313, -46.6465
101.500000, 76.667, -50.0123
103.000000, 77.057, -53.4865
104.400002, 77.438, -57.0391
106.000000, 77.891, -61.3381
107.500000, 78.318, -65.5008
109.000000, 78.760, -70.1725
110.599998, 79.100, -75.7567
112.000000, 79.339, -80.9113
113.800003, 79.496, -88.2918
115.000000, 79.529, -93.2772
117.199997, 79.500, -102.7426
118.000000, 79.457, -106.3404
120.599998, 79.008, -118.5337
122.000000, 78.548, -124.3541
124.099998, 77.749, -131.6305
125.000000, 77.380, -134.3369
126.500000, 76.735, -138.5708
128.000000, 76.044, -142.7179
131.500000, 74.334, -152.2096
132.000000, 74.091, -153.3866
134.000000, 73.164, -157.1228
136.000000, 72.244, -159.3851
138.000000, 71.281, -159.1955
140.000000, 70.467, -157.6875
143.000000, 69.472, -155.9919
145.000000, 68.834, -155.6624
147.500000, 68.173, -153.7914
150.000000, 67.667, -150.9325
152.500000, 67.172, -148.5405
155.000000, 67.082, -147.8481
157.500000, 67.506, -146.2912
160.000000, 68.020, -140.6861
162.500000, 68.017, -138.8996
165.000000, 67.258, -142.2696
167.500000, 66.859, -149.2347
170.000000, 66.491, -151.4076
172.500000, 65.952, -148.0544
175.000000, 65.085, -146.6408
177.500000, 64.524, -146.6515
180.000000, 64.346, -145.7054
182.500000, 64.106, -142.8883
185.000000, 63.745, -140.4482
187.500000, 63.553, -139.1922
190.000000, 63.539, -138.0995
192.500000, 63.441, -137.9040
195.000000, 63.217, -137.5330
197.500000, 63.160, -135.7601
200.000000, 63.375, -133.0801
203.000000, 63.535, -132.3155
206.000000, 63.196, -132.9513
209.000000, 62.731, -133.2936
212.000000, 62.575, -133.6628
214.000000, 62.521, -134.8731
218.000000, 61.740, -139.7895
220.000000, 60.742, -141.2558
224.000000, 58.341, -128.0298
227.000000, 58.074, -113.7018
230.000000, 58.434, -109.0918
233.000000, 58.520, -107.0665
236.000000, 58.344, -104.1552
240.000000, 57.875, -97.5595
243.000000, 57.910, -90.4429
247.000000, 58.515, -83.6861
250.000000, 59.098, -77.3614
254.000000, 59.880, -67.3207
258.000000, 60.457, -57.8251
262.000000, 61.269, -50.9496
265.000000, 62.253, -46.4233
269.000000, 64.022, -42.1903
272.000000, 65.421, -41.5530
276.000000, 67.278, -44.3509
280.000000, 69.020, -52.7386
285.000000, 70.305, -71.1057
290.000000, 69.925, -92.4691
295.000000, 67.741, -110.2163
300.000000, 63.868, -123.1014
304.000000, 59.955, -129.9278
307.000000, 58.600, -82.9167
311.000000, 61.646, 21.5603
315.000000, 65.352, 9.6728
320.000000, 68.149, -5.1812
325.000000, 69.341, -16.7431
330.000000, 69.799, -24.7797
335.000000, 69.968, -30.1431
340.000000, 70.141, -32.6682
345.000000, 70.334, -33.7223
350.000000, 70.530, -34.0696
355.000000, 70.783, -34.2686
360.000000, 71.077, -34.4274
365.000000, 71.385, -34.7080
370.000000, 71.698, -35.0093
375.000000, 71.989, -35.2548
382.000000, 72.307, -35.5145
387.000000, 72.413, -35.6135
395.000000, 72.642, -35.3293
400.000000, 72.952, -34.0788
406.000000, 73.352, -33.0887
412.000000, 73.705, -32.4198
418.000000, 74.039, -31.6872
425.000000, 74.474, -30.6586
431.000000, 74.894, -30.0196
437.000000, 75.523, -28.6244
444.000000, 76.731, -30.4186
450.000000, 77.462, -37.9443
455.000000, 77.570, -46.1729
462.000000, 77.184, -57.6520
468.000000, 76.791, -66.1428
475.000000, 76.671, -72.7711
482.000000, 76.783, -74.4510
487.000000, 76.811, -73.4322
494.000000, 76.736, -71.0294
500.000000, 76.741, -68.4376
508.000000, 76.953, -65.5512
515.000000, 77.033, -64.3964
522.000000, 76.999, -62.8653
530.000000, 76.964, -61.0850
538.000000, 77.030, -59.8670
545.000000, 77.169, -59.1631
552.000000, 77.274, -58.5141
560.000000, 77.274, -57.7941
570.000000, 77.237, -56.5875
580.000000, 77.198, -55.0707
590.000000, 77.132, -53.5460
600.000000, 77.022, -51.4651
608.000000, 76.920, -49.2531
615.000000, 76.855, -46.9157
622.000000, 76.830, -44.3346
630.000000, 76.860, -41.1441
640.000000, 77.021, -36.7047
650.000000, 77.336, -32.2048
660.000000, 77.782, -28.0042
670.000000, 78.327, -24.3518
680.000000, 78.943, -21.3590
690.000000, 79.570, -19.0338
700.000000, 80.173, -17.0905
710.000000, 80.794, -15.4592
720.000000, 81.417, -14.0644
730.000000, 82.042, -12.9379
740.000000, 82.682, -12.0573
750.000000, 83.321, -11.2024
762.000000, 83.993, -10.6948
775.000000, 84.691, -10.6417
788.000000, 85.415, -10.6823
800.000000, 86.084, -11.0163
812.000000, 86.710, -11.8349
825.000000, 87.295, -12.8502
838.000000, 87.827, -13.5087
850.000000, 88.341, -13.9677
862.000000, 88.871, -14.5781
875.000000, 89.440, -15.3755
885.000000, 89.851, -16.0764
900.000000, 90.457, -17.2269
912.000000, 90.937, -18.2295
925.000000, 91.471, -19.3121
938.000000, 92.015, -20.6318
950.000000, 92.502, -21.9542
962.000000, 92.998, -23.5019
975.000000, 93.505, -25.5509
988.000000, 93.971, -27.7966
1000.000000, 94.370, -30.0788
1015.000000, 94.800, -33.0010
1030.000000, 95.203, -35.8604
1044.000000, 95.532, -38.7745
1060.000000, 95.849, -41.8520
1075.000000, 96.140, -44.8061
1090.000000, 96.388, -47.9044
1106.000000, 96.588, -51.1698
1120.000000, 96.716, -53.8036
1138.000000, 96.846, -56.9926
1150.000000, 96.902, -59.0071
1172.000000, 96.974, -62.3779
1180.000000, 96.987, -63.5546
1206.000000, 96.996, -66.9513
1220.000000, 96.983, -68.5114
1241.000000, 96.970, -70.4290
1250.000000, 96.966, -71.1683
1265.000000, 96.959, -72.2495
1280.000000, 96.969, -73.1754
1315.000000, 97.036, -75.2085
1320.000000, 97.048, -75.4957
1340.000000, 97.080, -76.6525
1360.000000, 97.077, -77.6621
1380.000000, 97.078, -78.4895
1400.000000, 97.109, -79.2703
1430.000000, 97.168, -80.5343
1450.000000, 97.186, -81.4126
1475.000000, 97.151, -82.5576
1500.000000, 96.970, -83.2106
1525.000000, 96.766, -81.4667
1550.000000, 97.017, -78.4326
1575.000000, 97.487, -77.8731
1600.000000, 97.826, -78.6199
1625.000000, 98.082, -79.4627
1650.000000, 98.308, -80.3458
1675.000000, 98.509, -81.2925
1700.000000, 98.684, -82.2898
1725.000000, 98.828, -83.3559
1750.000000, 98.920, -84.3792
1775.000000, 98.959, -85.1677
1800.000000, 98.970, -85.4399
1825.000000, 99.014, -85.0607
1850.000000, 99.155, -84.3338
1875.000000, 99.390, -83.8238
1900.000000, 99.655, -83.7473
1925.000000, 99.902, -83.8824
1950.000000, 100.145, -83.8157
1975.000000, 100.472, -83.4212
2000.000000, 100.947, -83.4801
2030.000000, 101.518, -85.3580
2060.000000, 101.885, -88.1635
2090.000000, 102.104, -90.7003
2120.000000, 102.272, -92.8242
2140.000000, 102.389, -94.0622
2180.000000, 102.679, -96.4697
2200.000000, 102.848, -97.9670
2240.000000, 103.116, -102.2022
2270.000000, 103.029, -106.1449
2300.000000, 102.631, -108.2415
2330.000000, 102.374, -107.4872
2360.000000, 102.444, -106.6685
2400.000000, 102.714, -106.9216
2430.000000, 102.953, -107.6984
2470.000000, 103.291, -109.7054
2500.000000, 103.434, -112.0945
2540.000000, 103.441, -114.8546
2580.000000, 103.521, -116.6824
2620.000000, 103.689, -118.4564
2650.000000, 103.830, -120.0235
2690.000000, 103.994, -122.5392
2720.000000, 104.073, -124.6501
2760.000000, 104.146, -127.3736
2800.000000, 104.219, -130.1001
2850.000000, 104.404, -133.7419
2900.000000, 104.572, -139.3576
2950.000000, 104.417, -146.0805
3000.000000, 103.944, -152.1198
3040.000000, 103.480, -155.8644
3070.000000, 103.164, -158.3760
3110.000000, 102.754, -161.9938
3150.000000, 102.262, -165.7449
3200.000000, 101.564, -170.2915
3250.000000, 100.769, -175.2451
3300.000000, 99.741, 179.5475
3350.000000, 98.411, 174.6621
3400.000000, 96.764, 170.4536
3450.000000, 94.662, 166.9391
3500.000000, 91.701, 168.4350
3550.000000, 88.531, -165.8356
3600.000000, 88.161, -131.8258
3650.000000, 89.267, -118.7143
3700.000000, 90.298, -108.8087
3750.000000, 92.015, -98.2278
3820.000000, 94.957, -95.4021
3870.000000, 96.409, -100.7730
3950.000000, 96.761, -111.9452
4000.000000, 96.205, -112.2763
4060.000000, 96.374, -107.6680
4120.000000, 97.296, -105.4416
4180.000000, 98.482, -106.4566
4250.000000, 99.823, -112.1533
4310.000000, 100.716, -120.0897
4370.000000, 101.393, -130.2130
4440.000000, 101.738, -146.2823
4500.000000, 100.867, -162.0020
4550.000000, 99.252, -170.8706
4620.000000, 97.151, -176.5928
4680.000000, 95.774, 178.2589
4750.000000, 94.064, 174.0578
4820.000000, 93.026, 171.0482
4870.000000, 92.891, 165.9559
4940.000000, 93.400, 152.4963
5000.000000, 94.304, 133.6881
5080.000000, 95.260, 100.3040
5150.000000, 95.482, 71.3796
5220.000000, 95.593, 48.6390
5300.000000, 95.961, 30.5219
5380.000000, 96.683, 18.9936
5450.000000, 97.702, 11.7346
5520.000000, 98.836, 4.0428
5600.000000, 99.758, -5.4893
5700.000000, 100.426, -14.8267
5800.000000, 101.140, -22.1958
5900.000000, 101.603, -29.7017
6000.000000, 101.761, -35.2343
6080.000000, 101.923, -37.6001
6150.000000, 102.256, -39.0065
6220.000000, 102.737, -41.0897
6300.000000, 103.242, -44.7133
6400.000000, 103.648, -49.6859
6500.000000, 103.925, -53.9385
6600.000000, 104.244, -57.5463
6700.000000, 104.681, -61.4608
6800.000000, 105.149, -66.5620
6900.000000, 105.518, -72.9431
7000.000000, 105.706, -80.1384
7100.000000, 105.667, -87.9182
7200.000000, 105.273, -95.8411
7300.000000, 104.505, -102.2616
7400.000000, 103.557, -106.2844
7500.000000, 102.638, -108.0190
7620.000000, 101.741, -108.0530
7750.000000, 101.173, -106.3082
7880.000000, 101.071, -105.1220
8000.000000, 101.163, -106.5265
8120.000000, 101.166, -110.2039
8250.000000, 100.947, -115.4445
8380.000000, 100.570, -121.5874
8500.000000, 100.022, -128.1307
8620.000000, 99.304, -135.1726
8750.000000, 98.341, -144.3494
8850.000000, 97.342, -152.8406
9000.000000, 95.233, -168.0632
9120.000000, 92.855, 176.3594
9250.000000, 89.294, 152.6304
9380.000000, 85.535, 90.6998
9500.000000, 84.645, -4.6392
9620.000000, 85.389, -33.1712
9750.000000, 85.778, -45.0814
9880.000000, 85.900, -47.2723
10000.000000, 86.350, -45.0750
10150.000000, 87.315, -44.4187
10300.000000, 87.879, -47.4484
10440.000000, 87.979, -50.0681
10600.000000, 87.970, -52.4437
10750.000000, 87.854, -55.4380
10900.000000, 87.485, -59.2524
11060.000000, 86.729, -63.2048
11200.000000, 85.833, -65.7733
11380.000000, 84.545, -68.7098
11500.000000, 83.526, -71.0596
11720.000000, 81.557, -74.5880
11800.000000, 81.351, -77.5317
12060.000000, 84.371, -120.1653
12200.000000, 87.232, -163.5332
12410.000000, 90.884, 139.1877
12500.000000, 91.832, 119.6383
12650.000000, 92.461, 92.5437
12800.000000, 92.139, 72.2471
13150.000000, 89.654, 48.3748
13200.000000, 89.198, 47.5295
13400.000000, 87.670, 51.6808
13600.000000, 87.700, 59.7878
13800.000000, 88.254, 60.6958
14000.000000, 88.238, 59.8007
14300.000000, 88.323, 62.5594
14500.000000, 88.799, 61.2256
14750.000000, 88.924, 54.6021
15000.000000, 88.348, 45.3472
15250.000000, 86.870, 33.6832
15500.000000, 83.778, 23.5444
15750.000000, 78.827, 29.4915
16000.000000, 74.744, 76.3541
16250.000000, 75.831, 118.4177
16500.000000, 78.964, 138.1709
16750.000000, 82.158, 145.6337
17000.000000, 84.729, 144.2878
17250.000000, 86.228, 137.8165
17500.000000, 86.501, 132.1525
17750.000000, 86.373, 132.9348
18000.000000, 86.971, 136.9158
18250.000000, 87.877, 135.8236
18500.000000, 87.935, 130.9070
18750.000000, 87.181, 130.3842
19000.000000, 86.950, 136.9033
19250.000000, 87.242, 141.3850
19500.000000, 86.821, 143.5366
19750.000000, 85.954, 149.4087
20000.000000, 85.401, 154.2396
20300.000000, 84.121, 154.6620
20600.000000, 82.189, 155.5425
20900.000000, 79.802, 155.0845
21200.000000, 76.475, 154.9907
21400.000000, 73.715, 157.1003
21800.000000, 67.387, 173.3479
22000.000000, 64.142, -171.8323
22400.000000, 56.580, -141.8322
22700.000000, 49.533, -121.4486
23000.000000, 41.851, -107.3268
23300.000000, 35.310, -56.4188
23600.000000, 32.407, -81.9269
24000.000000, 31.368, 103.0389
