* Measurement data measured by REW V5.31
* Source: Headset (DS by VECLAN.COM), MICROPHONE (Master Volume), L, volume: 0.720. Timing signal peak level -14.4 dBFS, measurement signal peak level -13.5 dBFS
* Format: 4M Log Swept Sine, 1 sweep at -10.8 dBFS using an acoustic timing reference
* Dated: Apr 20, 2024 9:35:02 PM
* REW Settings:
*  C-weighting compensation: Off
*  Target level: 75.0 dB
* Note: ; Delay -0.0602 ms (-21 mm, -0.81 in) using estimated IR delay relative to Acoustic reference played from HEADPHONE R with no timing offset
* Measurement: Pink headset R4
* Smoothing: 1/24 octave
* Frequency Step: 1/48 octave
* Start Frequency: 1.000 Hz
*
* Freq(Hz), SPL(dB), Phase(degrees)
1.000000, 67.855, 15.4651
1.015000, 67.963, 15.3351
1.030000, 68.069, 15.2002
1.044000, 68.166, 15.0694
1.060000, 68.276, 14.9133
1.075000, 68.376, 14.7600
1.090000, 68.475, 14.5990
1.106000, 68.580, 14.4172
1.120000, 68.673, 14.2485
1.138000, 68.795, 14.0187
1.150000, 68.879, 13.8585
1.172000, 69.034, 13.5462
1.180000, 69.091, 13.4227
1.206000, 69.276, 13.0127
1.220000, 69.375, 12.7873
1.241000, 69.522, 12.4454
1.250000, 69.584, 12.2979
1.265000, 69.684, 12.0513
1.280000, 69.782, 11.8045
1.315000, 69.995, 11.2304
1.320000, 70.024, 11.1489
1.340000, 70.131, 10.8245
1.360000, 70.228, 10.5048
1.380000, 70.313, 10.1511
1.400000, 70.385, 9.7871
1.430000, 70.464, 9.2499
1.450000, 70.496, 8.8967
1.475000, 70.509, 8.4542
1.500000, 70.492, 7.9960
1.525000, 70.447, 7.5186
1.550000, 70.375, 7.0267
1.575000, 70.282, 6.5038
1.600000, 70.170, 5.9372
1.625000, 70.043, 5.3701
1.650000, 69.905, 4.8058
1.675000, 69.759, 4.2475
1.700000, 69.609, 3.6978
1.725000, 69.458, 3.1590
1.750000, 69.309, 2.6329
1.775000, 69.167, 2.1039
1.800000, 69.034, 1.5566
1.825000, 68.914, 1.0225
1.850000, 68.803, 0.4878
1.875000, 68.696, -0.0629
1.900000, 68.591, -0.6318
1.925000, 68.487, -1.2149
1.950000, 68.384, -1.8068
1.975000, 68.281, -2.4200
2.000000, 68.178, -3.0659
2.030000, 68.055, -3.8339
2.060000, 67.931, -4.5895
2.090000, 67.807, -5.3262
2.120000, 67.680, -6.0381
2.140000, 67.595, -6.4962
2.180000, 67.423, -7.3898
2.200000, 67.335, -7.8382
2.240000, 67.157, -8.7361
2.270000, 67.023, -9.4269
2.300000, 66.888, -10.1306
2.330000, 66.752, -10.8412
2.360000, 66.614, -11.5526
2.400000, 66.429, -12.5383
2.430000, 66.288, -13.2671
2.470000, 66.097, -14.2022
2.500000, 65.952, -14.8668
2.540000, 65.756, -15.6924
2.580000, 65.555, -16.4726
2.620000, 65.351, -17.2668
2.650000, 65.195, -17.8591
2.690000, 64.984, -18.6432
2.720000, 64.824, -19.2226
2.760000, 64.608, -19.9734
2.800000, 64.390, -20.7300
2.850000, 64.114, -21.6120
2.900000, 63.836, -22.3884
2.950000, 63.554, -23.0424
3.000000, 63.265, -23.6315
3.040000, 63.028, -24.0600
3.070000, 62.849, -24.3512
3.110000, 62.609, -24.6986
3.150000, 62.370, -24.9974
3.200000, 62.077, -25.3268
3.250000, 61.792, -25.5764
3.300000, 61.518, -25.7116
3.350000, 61.250, -25.7012
3.400000, 60.983, -25.5744
3.450000, 60.722, -25.3349
3.500000, 60.471, -24.9984
3.550000, 60.237, -24.5949
3.600000, 60.023, -24.1819
3.650000, 59.835, -23.7629
3.700000, 59.674, -23.2956
3.750000, 59.536, -22.7323
3.820000, 59.378, -21.8581
3.870000, 59.289, -21.2237
3.950000, 59.185, -20.3231
4.000000, 59.144, -19.9234
4.060000, 59.121, -19.6085
4.120000, 59.132, -19.3861
4.180000, 59.174, -19.2494
4.250000, 59.248, -19.2683
4.310000, 59.321, -19.4529
4.370000, 59.394, -19.8353
4.440000, 59.477, -20.5758
4.500000, 59.556, -21.3993
4.550000, 59.626, -22.1870
4.620000, 59.722, -23.4395
4.680000, 59.798, -24.6146
4.750000, 59.870, -26.0981
4.820000, 59.926, -27.7762
4.870000, 59.958, -29.0984
4.940000, 59.992, -31.0626
5.000000, 60.009, -32.8083
5.080000, 60.007, -35.1422
5.150000, 59.981, -37.1813
5.220000, 59.933, -39.3361
5.300000, 59.854, -41.9243
5.380000, 59.745, -44.5173
5.450000, 59.623, -46.7048
5.520000, 59.474, -48.7777
5.600000, 59.274, -51.1390
5.700000, 58.977, -54.0949
5.800000, 58.625, -56.8228
5.900000, 58.211, -59.1315
6.000000, 57.733, -61.0985
6.080000, 57.310, -62.4350
6.150000, 56.918, -63.3258
6.220000, 56.504, -63.8720
6.300000, 55.992, -63.9781
6.400000, 55.301, -63.2923
6.500000, 54.629, -61.6530
6.600000, 54.060, -58.9469
6.700000, 53.602, -54.9865
6.800000, 53.256, -49.8635
6.900000, 53.089, -44.1978
7.000000, 53.176, -38.6157
7.100000, 53.525, -33.4077
7.200000, 54.042, -28.9325
7.300000, 54.612, -25.5051
7.400000, 55.197, -23.1190
7.500000, 55.809, -21.5700
7.620000, 56.526, -20.5343
7.750000, 57.205, -20.2077
7.880000, 57.783, -20.5319
8.000000, 58.241, -21.1151
8.120000, 58.625, -21.8183
8.250000, 58.960, -22.7094
8.380000, 59.229, -23.5741
8.500000, 59.428, -24.2482
8.620000, 59.584, -24.8228
8.750000, 59.719, -25.2974
8.850000, 59.809, -25.5247
9.000000, 59.921, -25.6632
9.120000, 60.003, -25.6501
9.250000, 60.092, -25.5314
9.380000, 60.182, -25.3234
9.500000, 60.265, -25.1188
9.620000, 60.348, -24.9292
9.750000, 60.435, -24.7459
9.880000, 60.504, -24.6119
10.000000, 60.546, -24.5393
10.150000, 60.566, -24.5268
10.300000, 60.546, -24.4964
10.440000, 60.491, -24.4329
10.600000, 60.394, -24.2308
10.750000, 60.276, -23.8381
10.900000, 60.144, -23.2297
11.060000, 60.011, -22.3234
11.200000, 59.911, -21.3375
11.380000, 59.832, -19.8988
11.500000, 59.821, -18.8924
11.720000, 59.886, -17.2703
11.800000, 59.938, -16.8389
12.060000, 60.174, -16.2585
12.200000, 60.313, -16.6357
12.410000, 60.493, -18.0287
12.500000, 60.543, -18.9190
12.650000, 60.579, -20.7690
12.800000, 60.545, -22.9576
13.150000, 60.123, -29.0225
13.200000, 60.020, -29.9320
13.400000, 59.490, -33.5310
13.600000, 58.764, -36.7328
13.800000, 57.839, -39.1135
14.000000, 56.735, -40.0937
14.300000, 54.909, -37.4091
14.500000, 53.840, -31.8417
14.750000, 53.174, -21.4079
15.000000, 53.483, -10.9374
15.250000, 54.451, -4.2876
15.500000, 55.590, -1.6815
15.750000, 56.634, -1.8495
16.000000, 57.518, -3.5970
16.250000, 58.266, -6.2305
16.500000, 58.906, -9.3410
16.750000, 59.457, -12.7712
17.000000, 59.921, -16.4768
17.250000, 60.280, -20.4285
17.500000, 60.508, -24.5037
17.750000, 60.578, -28.5100
18.000000, 60.471, -32.2014
18.250000, 60.181, -35.2805
18.500000, 59.717, -37.3393
18.750000, 59.117, -37.9844
19.000000, 58.447, -36.8433
19.250000, 57.817, -33.7650
19.500000, 57.344, -28.9121
19.750000, 57.114, -22.8959
20.000000, 57.153, -16.5812
20.299999, 57.492, -9.6782
20.600000, 58.040, -4.1510
20.900000, 58.682, -0.2505
21.200001, 59.319, 2.0231
21.400000, 59.695, 2.7429
21.799999, 60.244, 2.8361
22.000000, 60.395, 2.5237
22.400000, 60.463, 1.9732
22.700001, 60.381, 2.1679
23.000000, 60.291, 3.0238
23.299999, 60.282, 4.2018
23.600000, 60.387, 5.1202
24.000000, 60.625, 5.0653
24.299999, 60.780, 3.8844
24.700001, 60.851, 1.1971
25.000000, 60.786, -1.2621
25.400000, 60.558, -4.6886
25.799999, 60.190, -7.8704
26.200001, 59.693, -10.2746
26.500000, 59.266, -11.0861
26.900000, 58.768, -10.3369
27.200001, 58.598, -8.6770
27.600000, 58.738, -6.5579
28.000000, 59.079, -6.0106
28.500000, 59.272, -6.5417
29.000000, 59.232, -4.2209
29.500000, 59.946, 1.4209
30.000000, 61.634, 2.1623
30.400000, 62.836, -3.4481
30.700001, 63.292, -10.1077
31.100000, 63.111, -20.0507
31.500000, 61.908, -28.0659
32.000000, 59.288, -25.8039
32.500000, 58.505, -1.2929
33.000000, 60.824, 9.8491
33.500000, 62.434, 3.7811
34.000000, 62.549, -4.8146
34.500000, 61.793, -8.8985
35.000000, 61.336, -8.0626
35.500000, 61.491, -8.9705
36.000000, 61.190, -13.9507
36.500000, 59.695, -16.3926
37.000000, 57.972, -4.3378
37.500000, 58.747, 14.4180
38.200001, 61.119, 11.9388
38.700001, 61.245, 1.7656
39.500000, 59.225, -5.9583
40.000000, 58.540, -0.8506
40.599998, 59.451, 2.0274
41.200001, 60.327, -1.8878
41.799999, 60.950, -4.7054
42.500000, 62.348, -6.3241
43.099998, 63.533, -10.4845
43.700001, 63.975, -14.7997
44.400002, 63.881, -13.9750
45.000000, 64.131, -8.2138
45.500000, 64.672, -3.4880
46.200001, 65.388, 0.5651
46.799999, 65.768, 2.5873
47.500000, 65.900, 3.5143
48.200001, 65.538, 3.3571
48.700001, 64.997, 3.5204
49.400002, 64.171, 4.0579
50.000000, 63.586, 2.9813
50.799999, 62.863, -0.9400
51.500000, 62.761, -4.2835
52.200001, 63.557, -8.9161
53.000000, 64.455, -13.2382
53.799999, 65.819, -8.0549
54.500000, 67.889, -4.1241
55.200001, 69.291, -4.3358
56.000000, 70.782, 3.1476
57.000000, 74.334, 4.9262
58.000000, 75.431, -16.9786
59.000000, 72.414, -33.8091
60.000000, 68.850, 6.5086
60.799999, 68.288, 10.0521
61.500000, 66.836, 1.8076
62.200001, 64.737, -1.0441
63.000000, 63.350, -1.6874
64.000000, 63.081, -6.5610
65.000000, 64.439, -9.1726
66.000000, 66.379, -14.9890
67.000000, 67.528, -21.6393
68.000000, 68.170, -25.7940
69.000000, 68.597, -27.7239
70.000000, 69.297, -28.7771
71.000000, 69.827, -33.9862
72.000000, 69.304, -35.1313
73.000000, 69.554, -25.9850
74.000000, 70.589, -24.4568
75.000000, 70.780, -26.4185
76.199997, 70.753, -26.4416
77.500000, 70.265, -25.0544
78.800003, 70.379, -20.1723
80.000000, 70.777, -21.5051
81.199997, 70.991, -23.4164
82.500000, 71.316, -25.6447
83.800003, 71.719, -27.2096
85.000000, 72.150, -28.6055
86.199997, 72.901, -28.1219
87.500000, 74.129, -29.3989
88.500000, 75.287, -30.5508
90.000000, 76.539, -39.5156
91.199997, 75.862, -44.6310
92.500000, 75.090, -41.6559
93.800003, 74.872, -39.0214
95.000000, 75.018, -39.3525
96.199997, 75.253, -42.8134
97.500000, 75.718, -48.1621
98.800003, 76.264, -54.0027
100.000000, 76.734, -58.0903
101.500000, 77.120, -62.3853
103.000000, 77.026, -64.5655
104.400002, 77.105, -65.8680
106.000000, 77.329, -70.1791
107.500000, 77.887, -74.7515
109.000000, 78.519, -81.2554
110.599998, 78.834, -87.1656
112.000000, 79.001, -92.4240
113.800003, 78.999, -102.1494
115.000000, 79.061, -109.9320
117.199997, 80.050, -124.8009
118.000000, 80.577, -130.1991
120.599998, 80.925, -149.7882
122.000000, 79.723, -157.0392
124.099998, 77.744, -170.2027
125.000000, 76.854, -178.4465
126.500000, 75.607, 167.0100
128.000000, 74.754, 153.6398
131.500000, 71.457, 130.5513
132.000000, 70.671, 127.0555
134.000000, 66.897, 107.4584
136.000000, 63.989, 75.4857
138.000000, 62.670, 39.0182
140.000000, 59.289, -0.0562
143.000000, 55.935, 134.3735
145.000000, 57.159, 90.3462
147.500000, 59.890, 42.2900
150.000000, 61.050, 11.2027
152.500000, 61.089, -18.4760
155.000000, 61.960, -43.4496
157.500000, 63.833, -44.3615
160.000000, 66.062, -34.4337
162.500000, 67.114, -40.1868
165.000000, 65.302, -52.9445
167.500000, 62.982, -58.6591
170.000000, 62.289, -65.0857
172.500000, 64.138, -83.5071
175.000000, 65.989, -90.0354
177.500000, 67.560, -79.8834
180.000000, 67.858, -74.6318
182.500000, 66.733, -71.1299
185.000000, 65.462, -72.6055
187.500000, 64.627, -75.6401
190.000000, 64.627, -78.2742
192.500000, 64.087, -79.1228
195.000000, 63.821, -68.6908
197.500000, 64.257, -67.2247
200.000000, 64.532, -66.2773
203.000000, 65.747, -65.6140
206.000000, 65.649, -68.3353
209.000000, 64.416, -68.2548
212.000000, 63.262, -70.2016
214.000000, 63.061, -69.4066
218.000000, 64.774, -63.5945
220.000000, 65.775, -63.1694
224.000000, 66.596, -62.4868
227.000000, 66.714, -62.5125
230.000000, 66.964, -66.0975
233.000000, 67.159, -70.0272
236.000000, 67.238, -69.9281
240.000000, 67.208, -67.3792
243.000000, 67.217, -64.7805
247.000000, 67.398, -63.2350
250.000000, 67.606, -62.1317
254.000000, 67.622, -57.5139
258.000000, 67.061, -56.3524
262.000000, 66.917, -59.1030
265.000000, 67.274, -58.4172
269.000000, 68.040, -61.2280
272.000000, 68.355, -61.5166
276.000000, 68.511, -56.4775
280.000000, 68.767, -54.9446
285.000000, 69.844, -55.9482
290.000000, 71.000, -60.8584
295.000000, 71.531, -73.4706
300.000000, 70.416, -93.0135
304.000000, 68.082, -105.0374
307.000000, 65.767, -109.8234
311.000000, 64.661, -26.4709
315.000000, 68.113, 23.4501
320.000000, 72.122, 7.9271
325.000000, 74.215, -10.1871
330.000000, 74.967, -24.9252
335.000000, 75.017, -33.9030
340.000000, 74.787, -39.3785
345.000000, 74.516, -42.6031
350.000000, 74.394, -44.5243
355.000000, 74.334, -46.0151
360.000000, 74.343, -46.5123
365.000000, 74.822, -45.8323
370.000000, 75.041, -45.5719
375.000000, 75.182, -46.5676
382.000000, 75.606, -47.8666
387.000000, 75.816, -49.3785
395.000000, 76.100, -51.6764
400.000000, 76.266, -54.2115
406.000000, 76.455, -57.3621
412.000000, 76.574, -58.1207
418.000000, 76.382, -59.4952
425.000000, 76.242, -59.8500
431.000000, 76.237, -60.4357
437.000000, 76.169, -60.8901
444.000000, 76.159, -61.7444
450.000000, 76.127, -62.5857
455.000000, 76.091, -62.6015
462.000000, 76.073, -63.4784
468.000000, 76.016, -63.2310
475.000000, 75.884, -61.4282
482.000000, 75.681, -61.4839
487.000000, 75.449, -62.6042
494.000000, 75.038, -62.4320
500.000000, 74.931, -60.1799
508.000000, 74.916, -57.4351
515.000000, 74.777, -55.2542
522.000000, 74.650, -51.9384
530.000000, 74.631, -47.7891
538.000000, 74.882, -45.4069
545.000000, 75.081, -43.1364
552.000000, 75.154, -41.0345
560.000000, 75.203, -39.8257
570.000000, 75.431, -37.8324
580.000000, 75.607, -34.9600
590.000000, 76.035, -31.2032
600.000000, 76.519, -28.2189
608.000000, 76.836, -26.5409
615.000000, 77.125, -25.6711
622.000000, 77.467, -24.1477
630.000000, 77.868, -21.8954
640.000000, 78.338, -19.8963
650.000000, 78.755, -17.6597
660.000000, 79.221, -15.3190
670.000000, 79.656, -13.4778
680.000000, 80.028, -13.1687
690.000000, 80.541, -11.6393
700.000000, 81.116, -10.5235
710.000000, 81.591, -9.1989
720.000000, 82.052, -7.6685
730.000000, 82.621, -6.7987
740.000000, 83.121, -6.6871
750.000000, 83.567, -6.3195
762.000000, 84.096, -5.8833
775.000000, 84.659, -5.0322
788.000000, 85.301, -3.7677
800.000000, 85.874, -3.4656
812.000000, 86.441, -3.2213
825.000000, 87.072, -3.3244
838.000000, 87.737, -3.7346
850.000000, 88.349, -4.1281
862.000000, 88.923, -4.9086
875.000000, 89.508, -5.9762
885.000000, 89.940, -6.8787
900.000000, 90.530, -8.1339
912.000000, 91.030, -9.2505
925.000000, 91.585, -10.6977
938.000000, 92.094, -12.0160
950.000000, 92.548, -13.3368
962.000000, 92.978, -14.9706
975.000000, 93.415, -16.9622
988.000000, 93.806, -19.0634
1000.000000, 94.144, -20.9039
1015.000000, 94.571, -23.1750
1030.000000, 94.995, -25.4548
1044.000000, 95.366, -27.4108
1060.000000, 95.733, -29.9695
1075.000000, 96.025, -32.8396
1090.000000, 96.275, -35.6987
1106.000000, 96.500, -38.6643
1120.000000, 96.659, -41.0380
1138.000000, 96.849, -43.9916
1150.000000, 96.965, -45.8615
1172.000000, 97.159, -49.3683
1180.000000, 97.201, -50.6910
1206.000000, 97.219, -54.4322
1220.000000, 97.195, -56.1281
1241.000000, 97.139, -58.1356
1250.000000, 97.123, -58.7054
1265.000000, 97.135, -59.5273
1280.000000, 97.161, -60.4667
1315.000000, 97.250, -62.5175
1320.000000, 97.257, -62.8426
1340.000000, 97.254, -63.9132
1360.000000, 97.245, -64.7189
1380.000000, 97.246, -65.4733
1400.000000, 97.256, -66.1185
1430.000000, 97.285, -67.0105
1450.000000, 97.295, -67.5128
1475.000000, 97.316, -67.8462
1500.000000, 97.375, -68.1782
1525.000000, 97.391, -69.1250
1550.000000, 97.196, -69.4696
1575.000000, 97.077, -67.5170
1600.000000, 97.250, -65.6963
1625.000000, 97.487, -65.0029
1650.000000, 97.683, -64.7103
1675.000000, 97.855, -64.4695
1700.000000, 98.014, -64.2448
1725.000000, 98.162, -64.0018
1750.000000, 98.312, -63.6452
1775.000000, 98.466, -63.3668
1800.000000, 98.595, -63.1176
1825.000000, 98.698, -62.6652
1850.000000, 98.793, -61.8123
1875.000000, 98.930, -60.4904
1900.000000, 99.145, -58.9765
1925.000000, 99.438, -57.5571
1950.000000, 99.785, -56.4427
1975.000000, 100.155, -55.7189
2000.000000, 100.520, -55.3070
2030.000000, 100.944, -54.9845
2060.000000, 101.370, -54.7150
2090.000000, 101.811, -54.5273
2120.000000, 102.273, -54.5195
2140.000000, 102.591, -54.6203
2180.000000, 103.244, -55.0156
2200.000000, 103.584, -55.4070
2240.000000, 104.286, -56.8808
2270.000000, 104.761, -58.9885
2300.000000, 105.047, -61.7078
2330.000000, 105.118, -63.5038
2360.000000, 105.211, -63.1556
2400.000000, 105.759, -61.7885
2430.000000, 106.353, -62.0414
2470.000000, 107.170, -63.8890
2500.000000, 107.759, -66.3967
2540.000000, 108.337, -71.2979
2580.000000, 108.593, -75.7946
2620.000000, 108.820, -78.5240
2650.000000, 109.077, -80.2982
2690.000000, 109.486, -82.9046
2720.000000, 109.833, -85.2567
2760.000000, 110.309, -89.2687
2800.000000, 110.724, -94.6459
2850.000000, 110.770, -103.2740
2900.000000, 110.150, -107.9958
2950.000000, 110.081, -107.6321
3000.000000, 110.629, -109.9561
3040.000000, 111.061, -114.5457
3070.000000, 111.221, -118.9397
3110.000000, 111.241, -124.4944
3150.000000, 111.258, -129.8499
3200.000000, 111.143, -137.7959
3250.000000, 110.758, -146.3110
3300.000000, 109.948, -154.9654
3350.000000, 108.739, -161.5001
3400.000000, 107.362, -165.5142
3450.000000, 105.983, -167.3930
3500.000000, 104.530, -168.4114
3550.000000, 102.782, -165.7321
3600.000000, 101.231, -155.0593
3650.000000, 100.904, -139.4248
3700.000000, 101.667, -129.9967
3750.000000, 102.508, -126.2723
3820.000000, 103.557, -123.7175
3870.000000, 104.457, -121.9733
3950.000000, 106.469, -126.1399
4000.000000, 107.143, -135.8327
4060.000000, 106.493, -147.6041
4120.000000, 105.020, -147.0586
4180.000000, 105.078, -137.4042
4250.000000, 106.984, -134.4690
4310.000000, 108.767, -141.6536
4370.000000, 109.998, -154.8098
4440.000000, 110.468, -173.8038
4500.000000, 110.113, 169.4908
4550.000000, 109.298, 156.2753
4620.000000, 107.505, 142.3005
4680.000000, 106.111, 134.7441
4750.000000, 104.962, 124.7938
4820.000000, 103.574, 114.6993
4870.000000, 102.629, 109.9428
4940.000000, 102.020, 103.9315
5000.000000, 102.010, 96.2444
5080.000000, 102.258, 83.6826
5150.000000, 102.733, 71.6702
5220.000000, 103.396, 59.1492
5300.000000, 104.530, 44.7471
5380.000000, 105.795, 27.2697
5450.000000, 106.348, 9.9930
5520.000000, 106.281, -5.6984
5600.000000, 105.850, -19.6193
5700.000000, 105.222, -32.5400
5800.000000, 104.450, -41.4523
5900.000000, 103.731, -45.6869
6000.000000, 103.294, -46.8956
6080.000000, 103.189, -46.0870
6150.000000, 103.353, -44.9656
6220.000000, 103.670, -44.5727
6300.000000, 104.088, -44.6205
6400.000000, 104.716, -44.8051
6500.000000, 105.518, -45.3810
6600.000000, 106.511, -47.1768
6700.000000, 107.595, -51.1223
6800.000000, 108.685, -57.4613
6900.000000, 109.613, -67.0898
7000.000000, 110.005, -79.3455
7100.000000, 109.724, -91.3784
7200.000000, 108.968, -100.9990
7300.000000, 108.002, -107.7537
7400.000000, 106.988, -112.0700
7500.000000, 106.018, -114.3435
7620.000000, 105.030, -114.8472
7750.000000, 104.341, -113.5992
7880.000000, 104.008, -112.7355
8000.000000, 103.845, -113.6877
8120.000000, 103.702, -116.0484
8250.000000, 103.498, -120.4067
8380.000000, 103.093, -126.3359
8500.000000, 102.485, -132.3395
8620.000000, 101.745, -138.5529
8750.000000, 100.781, -147.3774
8850.000000, 99.700, -155.9095
9000.000000, 97.225, -169.7388
9120.000000, 94.413, 178.4707
9250.000000, 90.318, 162.3838
9380.000000, 86.268, 98.2009
9500.000000, 86.943, -24.4756
9620.000000, 88.900, -44.2192
9750.000000, 89.666, -55.7800
9880.000000, 89.779, -57.7090
10000.000000, 90.001, -54.9534
10150.000000, 90.495, -51.3771
10300.000000, 91.052, -48.6180
10440.000000, 91.609, -47.0576
10600.000000, 92.145, -46.8999
10750.000000, 92.549, -47.0850
10900.000000, 92.933, -47.8934
11060.000000, 93.302, -49.9512
11200.000000, 93.512, -52.9189
11380.000000, 93.582, -57.4910
11500.000000, 93.556, -60.6864
11720.000000, 93.790, -66.4678
11800.000000, 94.131, -70.3696
12060.000000, 95.311, -100.4888
12200.000000, 95.320, -128.5392
12410.000000, 93.675, 177.1455
12500.000000, 92.464, 152.4000
12650.000000, 90.421, 115.4099
12800.000000, 88.994, 88.2585
13150.000000, 87.972, 58.6050
13200.000000, 87.954, 56.4797
13400.000000, 87.829, 49.2109
13600.000000, 87.259, 44.4661
13800.000000, 86.445, 47.0333
14000.000000, 86.447, 57.5819
14300.000000, 88.296, 61.9297
14500.000000, 89.222, 52.8967
14750.000000, 89.270, 34.2181
15000.000000, 87.353, 10.1565
15250.000000, 82.933, -12.4822
15500.000000, 77.797, -86.7186
15750.000000, 80.619, 159.8928
16000.000000, 84.971, 140.9720
16250.000000, 86.933, 121.6305
16500.000000, 87.057, 110.0128
16750.000000, 86.816, 108.1422
17000.000000, 86.510, 110.5286
17250.000000, 86.628, 121.5825
17500.000000, 87.671, 130.8951
17750.000000, 88.757, 132.4774
18000.000000, 89.436, 131.0283
18250.000000, 89.583, 128.7931
18500.000000, 89.382, 131.3851
18750.000000, 89.713, 139.3479
19000.000000, 90.492, 140.1625
19250.000000, 90.807, 134.2002
19500.000000, 90.494, 126.8440
19750.000000, 89.684, 118.9561
20000.000000, 88.311, 110.5195
20300.000000, 85.886, 101.2693
20600.000000, 82.760, 94.8757
20900.000000, 79.238, 96.2505
21200.000000, 76.183, 105.8666
21400.000000, 74.427, 108.8330
21800.000000, 69.518, 100.7871
22000.000000, 65.903, 101.8899
22400.000000, 57.579, 161.8019
22700.000000, 50.818, 170.0171
23000.000000, 44.218, 158.7371
23300.000000, 40.331, -171.6434
23600.000000, 39.164, 63.6561
24000.000000, 38.546, 153.3961
