* Measurement data measured by REW V5.31
* Source: Headset (DS by VECLAN.COM), MICROPHONE (Master Volume), L, volume: 0.720. Timing signal peak level -15.5 dBFS, measurement signal peak level -12.3 dBFS
* Format: 4M Log Swept Sine, 1 sweep at -12.0 dBFS using an acoustic timing reference
* Dated: Apr 20, 2024 10:34:36 PM
* REW Settings:
*  C-weighting compensation: Off
*  Target level: 75.0 dB
* Note: ; Delay -0.0502 ms (-17 mm, -0.68 in) using estimated IR delay relative to Acoustic reference played from HEADPHONE L with no timing offset Clock adjustment: -2.5 ppm
* Measurement: Samsung Earbuds L5
* Smoothing: 1/24 octave
* Frequency Step: 1/48 octave
* Start Frequency: 1.000 Hz
*
* Freq(Hz), SPL(dB), Phase(degrees)
1.000000, 64.661, 17.8453
1.015000, 64.727, 17.4112
1.030000, 64.791, 16.9788
1.044000, 64.849, 16.5763
1.060000, 64.912, 16.1168
1.075000, 64.969, 15.6854
1.090000, 65.024, 15.2509
1.106000, 65.081, 14.7744
1.120000, 65.131, 14.3319
1.138000, 65.197, 13.7204
1.150000, 65.242, 13.2876
1.172000, 65.324, 12.4416
1.180000, 65.353, 12.1143
1.206000, 65.448, 11.0107
1.220000, 65.496, 10.3951
1.241000, 65.565, 9.4508
1.250000, 65.593, 9.0401
1.265000, 65.637, 8.3501
1.280000, 65.676, 7.6555
1.315000, 65.750, 6.0322
1.320000, 65.758, 5.8013
1.340000, 65.784, 4.8843
1.360000, 65.798, 3.9824
1.380000, 65.798, 3.0615
1.400000, 65.784, 2.1493
1.430000, 65.734, 0.8331
1.450000, 65.678, -0.0071
1.475000, 65.580, -1.0354
1.500000, 65.451, -2.0995
1.525000, 65.291, -3.2250
1.550000, 65.104, -4.4065
1.575000, 64.893, -5.6564
1.600000, 64.661, -6.9820
1.625000, 64.413, -8.3336
1.650000, 64.150, -9.7007
1.675000, 63.878, -11.0724
1.700000, 63.599, -12.4378
1.725000, 63.316, -13.7859
1.750000, 63.034, -15.1060
1.775000, 62.756, -16.4046
1.800000, 62.484, -17.6892
1.825000, 62.222, -18.9260
1.850000, 61.968, -20.1518
1.875000, 61.717, -21.4206
1.900000, 61.467, -22.7501
1.925000, 61.217, -24.1381
1.950000, 60.965, -25.5782
1.975000, 60.712, -27.0790
2.000000, 60.456, -28.6475
2.030000, 60.144, -30.5587
2.060000, 59.827, -32.4829
2.090000, 59.501, -34.3957
2.120000, 59.168, -36.2700
2.140000, 58.940, -37.4842
2.180000, 58.470, -39.8161
2.200000, 58.228, -40.9463
2.240000, 57.744, -43.2085
2.270000, 57.382, -44.9791
2.300000, 57.018, -46.8301
2.330000, 56.649, -48.7611
2.360000, 56.270, -50.7663
2.400000, 55.745, -53.5817
2.430000, 55.329, -55.7448
2.470000, 54.740, -58.6354
2.500000, 54.267, -60.7604
2.540000, 53.587, -63.4569
2.580000, 52.838, -65.9884
2.620000, 52.010, -68.5275
2.650000, 51.340, -70.4999
2.690000, 50.394, -73.2764
2.720000, 49.656, -75.4922
2.760000, 48.649, -78.6448
2.800000, 47.635, -82.0656
2.850000, 46.385, -86.5981
2.900000, 45.188, -91.1865
2.950000, 44.024, -95.5577
3.000000, 42.771, -100.0816
3.040000, 41.698, -104.4295
3.070000, 40.885, -108.6962
3.110000, 39.838, -117.8309
3.150000, 38.893, -141.0310
3.200000, 37.958, 129.0617
3.250000, 37.424, 94.3589
3.300000, 37.439, 82.5203
3.350000, 38.106, 74.3334
3.400000, 39.348, 67.5885
3.450000, 40.967, 61.9670
3.500000, 42.757, 57.2169
3.550000, 44.524, 53.0831
3.600000, 46.095, 49.3067
3.650000, 47.341, 45.6642
3.700000, 48.265, 41.8810
3.750000, 48.972, 37.8475
3.820000, 49.720, 32.0728
3.870000, 50.132, 28.0996
3.950000, 50.679, 22.2110
4.000000, 51.001, 18.7737
4.060000, 51.383, 14.6774
4.120000, 51.725, 10.3466
4.180000, 52.012, 5.8533
4.250000, 52.286, 0.6643
4.310000, 52.479, -3.5275
4.370000, 52.642, -7.4343
4.440000, 52.797, -11.8903
4.500000, 52.896, -15.8796
4.550000, 52.951, -19.2988
4.620000, 52.988, -24.0632
4.680000, 52.982, -27.9325
4.750000, 52.933, -32.0634
4.820000, 52.841, -36.0141
4.870000, 52.750, -38.9073
4.940000, 52.583, -43.0286
5.000000, 52.396, -46.4966
5.080000, 52.075, -50.7257
5.150000, 51.721, -53.9095
5.220000, 51.304, -56.8608
5.300000, 50.751, -60.1088
5.380000, 50.107, -63.0197
5.450000, 49.452, -64.9678
5.520000, 48.670, -66.0132
5.600000, 47.546, -65.9802
5.700000, 45.963, -63.7686
5.800000, 44.643, -58.1949
5.900000, 44.068, -48.1100
6.000000, 44.263, -33.6351
6.080000, 44.797, -21.8372
6.150000, 45.437, -13.7287
6.220000, 46.194, -8.3291
6.300000, 47.237, -4.7842
6.400000, 48.784, -2.8453
6.500000, 50.344, -2.8228
6.600000, 51.668, -4.2411
6.700000, 52.722, -6.7429
6.800000, 53.594, -9.8123
6.900000, 54.336, -13.1174
7.000000, 54.971, -16.6490
7.100000, 55.493, -20.5270
7.200000, 55.911, -24.5327
7.300000, 56.242, -28.4526
7.400000, 56.493, -32.3712
7.500000, 56.661, -36.4417
7.620000, 56.760, -41.2617
7.750000, 56.750, -46.1929
7.880000, 56.619, -51.1223
8.000000, 56.389, -55.5104
8.120000, 56.055, -59.5294
8.250000, 55.575, -63.6542
8.380000, 54.963, -67.4069
8.500000, 54.273, -70.2733
8.620000, 53.463, -72.5536
8.750000, 52.445, -74.1777
8.850000, 51.543, -74.5099
9.000000, 50.010, -72.9297
9.120000, 48.811, -69.3795
9.250000, 47.695, -62.4432
9.380000, 46.838, -51.8900
9.500000, 46.522, -40.4406
9.620000, 46.874, -29.7411
9.750000, 47.811, -20.7731
9.880000, 48.890, -15.1273
10.000000, 49.840, -12.3806
10.150000, 50.956, -11.2311
10.300000, 51.892, -11.7100
10.440000, 52.578, -13.1781
10.600000, 53.183, -15.4919
10.750000, 53.596, -18.0231
10.900000, 53.872, -20.7345
11.060000, 54.035, -23.5151
11.200000, 54.075, -25.8326
11.380000, 54.015, -28.2656
11.500000, 53.915, -29.4229
11.720000, 53.687, -30.4085
11.800000, 53.612, -30.3160
12.060000, 53.510, -28.5765
12.200000, 53.632, -27.0322
12.410000, 54.071, -24.6314
12.500000, 54.348, -23.8685
12.650000, 54.911, -23.0989
12.800000, 55.537, -23.1505
13.150000, 56.978, -26.5135
13.200000, 57.161, -27.2975
13.400000, 57.804, -30.9803
13.600000, 58.282, -35.1547
13.800000, 58.574, -39.5416
14.000000, 58.676, -43.7048
14.300000, 58.489, -48.9390
14.500000, 58.167, -51.0895
14.750000, 57.649, -51.6265
15.000000, 57.182, -49.3462
15.250000, 57.039, -44.7560
15.500000, 57.347, -39.5386
15.750000, 58.021, -35.5551
16.000000, 58.814, -33.6870
16.250000, 59.521, -33.6630
16.500000, 60.034, -34.7283
16.750000, 60.322, -36.1276
17.000000, 60.410, -37.2062
17.250000, 60.351, -37.5223
17.500000, 60.227, -36.7441
17.750000, 60.136, -34.8819
18.000000, 60.156, -32.2744
18.250000, 60.322, -29.5059
18.500000, 60.612, -27.1218
18.750000, 60.972, -25.4575
19.000000, 61.343, -24.6158
19.250000, 61.680, -24.5562
19.500000, 61.954, -25.1237
19.750000, 62.145, -26.1774
20.000000, 62.240, -27.5671
20.299999, 62.207, -29.4498
20.600000, 62.005, -31.1417
20.900000, 61.649, -32.1108
21.200001, 61.210, -31.7966
21.400000, 60.942, -30.6844
21.799999, 60.712, -26.7209
22.000000, 60.825, -24.5615
22.400000, 61.446, -21.9714
22.700001, 62.031, -22.2450
23.000000, 62.524, -24.1090
23.299999, 62.831, -26.8087
23.600000, 62.939, -29.4844
24.000000, 62.874, -31.8151
24.299999, 62.805, -32.2285
24.700001, 62.884, -31.3833
25.000000, 63.108, -30.4851
25.400000, 63.515, -29.8441
25.799999, 63.881, -29.7549
26.200001, 64.155, -29.5308
26.500000, 64.345, -28.9933
26.900000, 64.649, -27.9420
27.200001, 64.920, -27.2170
27.600000, 65.286, -26.5732
28.000000, 65.620, -26.1467
28.500000, 66.066, -25.8234
29.000000, 66.625, -26.7810
29.500000, 67.090, -30.3624
30.000000, 67.063, -35.8129
30.400000, 66.526, -39.4730
30.700001, 65.880, -40.2391
31.100000, 65.073, -37.0514
31.500000, 64.997, -30.3605
32.000000, 66.075, -25.1721
32.500000, 67.271, -26.9794
33.000000, 67.858, -31.7927
33.500000, 67.933, -35.4070
34.000000, 67.954, -36.1981
34.500000, 68.247, -35.5681
35.000000, 68.674, -35.4202
35.500000, 68.995, -35.6058
36.000000, 69.232, -35.0967
36.500000, 69.548, -34.0113
37.000000, 69.947, -33.4541
37.500000, 70.259, -33.8612
38.200001, 70.391, -34.5609
38.700001, 70.412, -34.2020
39.500000, 70.662, -33.3606
40.000000, 70.893, -33.8074
40.599998, 71.087, -35.1133
41.200001, 71.209, -36.2070
41.799999, 71.396, -36.6993
42.500000, 71.763, -37.1215
43.099998, 72.125, -37.6375
43.700001, 72.472, -38.1240
44.400002, 72.814, -38.5126
45.000000, 73.002, -38.3508
45.500000, 73.120, -37.4991
46.200001, 73.393, -35.7092
46.799999, 73.711, -35.0703
47.500000, 73.904, -35.7770
48.200001, 73.840, -36.3560
48.700001, 73.790, -36.1265
49.400002, 73.905, -35.6763
50.000000, 74.172, -36.1578
50.799999, 74.571, -38.4733
51.500000, 74.776, -40.8183
52.200001, 74.908, -41.6396
53.000000, 75.224, -40.8433
53.799999, 75.593, -39.2870
54.500000, 75.924, -37.1815
55.200001, 76.225, -35.6873
56.000000, 76.113, -32.9525
57.000000, 76.514, -21.0651
58.000000, 78.220, -19.5607
59.000000, 78.233, -28.0398
60.000000, 77.477, -29.9849
60.799999, 77.657, -31.2712
61.500000, 77.800, -35.1186
62.200001, 77.752, -38.2250
63.000000, 77.879, -39.3306
64.000000, 78.443, -40.0522
65.000000, 78.944, -41.7239
66.000000, 79.094, -42.7513
67.000000, 79.167, -42.0868
68.000000, 79.363, -42.3241
69.000000, 79.403, -44.0596
70.000000, 79.486, -45.0345
71.000000, 79.848, -47.1066
72.000000, 79.986, -49.4908
73.000000, 80.174, -48.3969
74.000000, 80.713, -47.1678
75.000000, 81.035, -47.0952
76.199997, 81.244, -45.5446
77.500000, 81.492, -45.0710
78.800003, 81.507, -45.9871
80.000000, 81.506, -46.7958
81.199997, 81.616, -47.5166
82.500000, 81.848, -47.8545
83.800003, 82.180, -47.8662
85.000000, 82.448, -48.3753
86.199997, 82.593, -49.3868
87.500000, 82.668, -51.0131
88.500000, 82.652, -52.9614
90.000000, 82.495, -53.1221
91.199997, 82.949, -51.3528
92.500000, 83.576, -52.1039
93.800003, 83.997, -52.9229
95.000000, 84.241, -53.2966
96.199997, 84.412, -53.2410
97.500000, 84.600, -53.3721
98.800003, 84.786, -54.0934
100.000000, 84.956, -54.8218
101.500000, 85.226, -55.7727
103.000000, 85.401, -56.7928
104.400002, 85.484, -56.9275
106.000000, 85.581, -56.9321
107.500000, 85.713, -57.1807
109.000000, 85.943, -58.0183
110.599998, 86.248, -59.3795
112.000000, 86.489, -60.1445
113.800003, 86.767, -60.0878
115.000000, 86.896, -59.8729
117.199997, 86.915, -60.2277
118.000000, 86.838, -60.4338
120.599998, 87.083, -59.5094
122.000000, 87.483, -61.8510
124.099998, 87.822, -64.9216
125.000000, 87.965, -65.4463
126.500000, 88.185, -66.0615
128.000000, 88.328, -66.4580
131.500000, 88.603, -67.5724
132.000000, 88.648, -67.8452
134.000000, 88.835, -69.0946
136.000000, 89.002, -70.3338
138.000000, 89.142, -71.2089
140.000000, 89.328, -71.8023
143.000000, 89.627, -72.9597
145.000000, 89.793, -73.5886
147.500000, 89.988, -74.4125
150.000000, 90.186, -75.4717
152.500000, 90.372, -76.5164
155.000000, 90.536, -77.3602
157.500000, 90.672, -78.4095
160.000000, 90.789, -79.8911
162.500000, 90.902, -81.0588
165.000000, 91.122, -81.4312
167.500000, 91.350, -82.0618
170.000000, 91.474, -82.7437
172.500000, 91.584, -83.3087
175.000000, 91.748, -84.1796
177.500000, 91.890, -85.2497
180.000000, 92.017, -86.1562
182.500000, 92.115, -87.0539
185.000000, 92.223, -87.8926
187.500000, 92.308, -89.0261
190.000000, 92.363, -90.0154
192.500000, 92.450, -90.8580
195.000000, 92.577, -91.7703
197.500000, 92.716, -92.7096
200.000000, 92.817, -93.6146
203.000000, 92.899, -94.4501
206.000000, 92.968, -95.3230
209.000000, 93.048, -96.1890
212.000000, 93.130, -97.0284
214.000000, 93.181, -97.5036
218.000000, 93.282, -98.3462
220.000000, 93.340, -98.7977
224.000000, 93.462, -99.8618
227.000000, 93.532, -100.6796
230.000000, 93.585, -101.4299
233.000000, 93.632, -102.1114
236.000000, 93.646, -102.9109
240.000000, 93.629, -103.9662
243.000000, 93.689, -104.5914
247.000000, 93.783, -105.3403
250.000000, 93.818, -105.8657
254.000000, 93.854, -106.6160
258.000000, 93.898, -107.3156
262.000000, 93.942, -107.9633
265.000000, 93.966, -108.3303
269.000000, 94.000, -108.7592
272.000000, 94.033, -109.0497
276.000000, 94.097, -109.4533
280.000000, 94.149, -109.9204
285.000000, 94.199, -110.4332
290.000000, 94.277, -110.8196
295.000000, 94.352, -111.2988
300.000000, 94.395, -111.7960
304.000000, 94.440, -112.0516
307.000000, 94.479, -112.3268
311.000000, 94.532, -112.7335
315.000000, 94.595, -113.0817
320.000000, 94.671, -113.4423
325.000000, 94.743, -113.8242
330.000000, 94.800, -114.2173
335.000000, 94.852, -114.6239
340.000000, 94.912, -114.9512
345.000000, 94.964, -115.2674
350.000000, 95.017, -115.5883
355.000000, 95.072, -116.0314
360.000000, 95.122, -116.4858
365.000000, 95.171, -116.6218
370.000000, 95.223, -116.8602
375.000000, 95.270, -117.2747
382.000000, 95.328, -117.6830
387.000000, 95.373, -117.9473
395.000000, 95.460, -118.4271
400.000000, 95.511, -118.6715
406.000000, 95.577, -119.0063
412.000000, 95.623, -119.5981
418.000000, 95.684, -120.1564
425.000000, 95.755, -120.9454
431.000000, 95.782, -121.9478
437.000000, 95.716, -123.2336
444.000000, 95.456, -124.1530
450.000000, 95.211, -123.2865
455.000000, 95.159, -121.8074
462.000000, 95.290, -120.4114
468.000000, 95.432, -119.9492
475.000000, 95.557, -119.9395
482.000000, 95.649, -120.1218
487.000000, 95.702, -120.2142
494.000000, 95.765, -120.3069
500.000000, 95.816, -120.4112
508.000000, 95.884, -120.5264
515.000000, 95.941, -120.6631
522.000000, 95.996, -120.7895
530.000000, 96.051, -120.8627
538.000000, 96.103, -120.9410
545.000000, 96.148, -121.0090
552.000000, 96.188, -121.0785
560.000000, 96.232, -121.1366
570.000000, 96.305, -121.1504
580.000000, 96.366, -121.2865
590.000000, 96.409, -121.3738
600.000000, 96.450, -121.3527
608.000000, 96.484, -121.3074
615.000000, 96.512, -121.3334
622.000000, 96.538, -121.3599
630.000000, 96.568, -121.3513
640.000000, 96.606, -121.2679
650.000000, 96.639, -121.2084
660.000000, 96.671, -121.1832
670.000000, 96.695, -121.1195
680.000000, 96.716, -121.0820
690.000000, 96.751, -120.9673
700.000000, 96.798, -120.8792
710.000000, 96.840, -120.7393
720.000000, 96.877, -120.5373
730.000000, 96.913, -120.3923
740.000000, 96.950, -120.2859
750.000000, 96.986, -120.2592
762.000000, 97.011, -120.0339
775.000000, 97.047, -119.6963
788.000000, 97.088, -119.4315
800.000000, 97.128, -119.2786
812.000000, 97.159, -119.0011
825.000000, 97.181, -118.6928
838.000000, 97.212, -118.3995
850.000000, 97.238, -118.0994
862.000000, 97.265, -117.8585
875.000000, 97.295, -117.5218
885.000000, 97.321, -117.1982
900.000000, 97.357, -116.7814
912.000000, 97.382, -116.4980
925.000000, 97.408, -116.1030
938.000000, 97.435, -115.6735
950.000000, 97.458, -115.2593
962.000000, 97.479, -114.8638
975.000000, 97.494, -114.4618
988.000000, 97.505, -114.0071
1000.000000, 97.523, -113.4728
1015.000000, 97.545, -112.8397
1030.000000, 97.566, -112.2716
1044.000000, 97.588, -111.7094
1060.000000, 97.617, -110.9103
1075.000000, 97.644, -110.1083
1090.000000, 97.684, -109.3322
1106.000000, 97.736, -108.4205
1120.000000, 97.783, -107.6484
1138.000000, 97.867, -106.6692
1150.000000, 97.936, -106.0342
1172.000000, 98.033, -104.7487
1180.000000, 98.063, -104.2681
1206.000000, 98.204, -102.6403
1220.000000, 98.300, -101.7443
1241.000000, 98.428, -100.3929
1250.000000, 98.484, -99.7947
1265.000000, 98.583, -98.7822
1280.000000, 98.690, -97.7281
1315.000000, 98.986, -95.1890
1320.000000, 99.028, -94.8333
1340.000000, 99.196, -93.4221
1360.000000, 99.365, -91.9779
1380.000000, 99.553, -90.5146
1400.000000, 99.766, -89.0842
1430.000000, 100.129, -86.9086
1450.000000, 100.393, -85.5278
1475.000000, 100.728, -83.7432
1500.000000, 101.099, -82.0051
1525.000000, 101.509, -80.3336
1550.000000, 101.952, -78.8278
1575.000000, 102.415, -77.5785
1600.000000, 102.871, -76.3929
1625.000000, 103.358, -75.3296
1650.000000, 103.865, -74.5447
1675.000000, 104.401, -73.9755
1700.000000, 104.957, -73.7086
1725.000000, 105.510, -73.7602
1750.000000, 106.059, -74.0294
1775.000000, 106.608, -74.5906
1800.000000, 107.150, -75.4263
1825.000000, 107.686, -76.5379
1850.000000, 108.200, -78.0210
1875.000000, 108.672, -79.7375
1900.000000, 109.112, -81.5331
1925.000000, 109.535, -83.5073
1950.000000, 109.927, -85.6489
1975.000000, 110.282, -87.8590
2000.000000, 110.609, -90.1625
2030.000000, 110.965, -93.0306
2060.000000, 111.278, -95.9463
2090.000000, 111.552, -98.8940
2120.000000, 111.789, -101.8722
2140.000000, 111.929, -103.8749
2180.000000, 112.161, -107.8181
2200.000000, 112.256, -109.7885
2240.000000, 112.408, -113.7197
2270.000000, 112.490, -116.6418
2300.000000, 112.541, -119.5461
2330.000000, 112.559, -122.3918
2360.000000, 112.546, -125.1768
2400.000000, 112.477, -128.7793
2430.000000, 112.394, -131.3297
2470.000000, 112.249, -134.5463
2500.000000, 112.115, -136.7938
2540.000000, 111.909, -139.5635
2580.000000, 111.672, -142.0561
2620.000000, 111.416, -144.2906
2650.000000, 111.211, -145.7998
2690.000000, 110.925, -147.5266
2720.000000, 110.705, -148.6194
2760.000000, 110.423, -149.8234
2800.000000, 110.150, -150.8967
2850.000000, 109.809, -151.9989
2900.000000, 109.477, -152.8150
2950.000000, 109.159, -153.3928
3000.000000, 108.853, -153.7596
3040.000000, 108.618, -153.9077
3070.000000, 108.450, -153.9526
3110.000000, 108.238, -153.9254
3150.000000, 108.038, -153.8123
3200.000000, 107.801, -153.5911
3250.000000, 107.578, -153.2633
3300.000000, 107.373, -152.7969
3350.000000, 107.187, -152.2872
3400.000000, 107.019, -151.7061
3450.000000, 106.870, -151.0863
3500.000000, 106.739, -150.4376
3550.000000, 106.622, -149.7346
3600.000000, 106.517, -149.0152
3650.000000, 106.425, -148.2234
3700.000000, 106.351, -147.3942
3750.000000, 106.293, -146.5637
3820.000000, 106.227, -145.3923
3870.000000, 106.197, -144.5182
3950.000000, 106.183, -143.2184
4000.000000, 106.185, -142.4278
4060.000000, 106.203, -141.5165
4120.000000, 106.237, -140.6444
4180.000000, 106.283, -139.8384
4250.000000, 106.349, -138.9359
4310.000000, 106.420, -138.1648
4370.000000, 106.503, -137.4601
4440.000000, 106.614, -136.7045
4500.000000, 106.725, -136.1356
4550.000000, 106.836, -135.6597
4620.000000, 107.035, -135.1536
4680.000000, 107.240, -134.9836
4750.000000, 107.493, -135.1840
4820.000000, 107.753, -135.7630
4870.000000, 107.942, -136.4587
4940.000000, 108.197, -137.8831
5000.000000, 108.374, -139.6191
5080.000000, 108.470, -142.4499
5150.000000, 108.380, -144.7173
5220.000000, 108.209, -145.7498
5300.000000, 108.191, -145.5454
5380.000000, 108.474, -145.9289
5450.000000, 108.790, -147.9487
5520.000000, 108.994, -151.2521
5600.000000, 109.000, -155.5585
5700.000000, 108.761, -160.4312
5800.000000, 108.387, -164.6696
5900.000000, 107.907, -168.2608
6000.000000, 107.360, -171.2240
6080.000000, 106.886, -173.1380
6150.000000, 106.448, -174.4188
6220.000000, 106.009, -175.3488
6300.000000, 105.518, -176.0369
6400.000000, 104.912, -176.4039
6500.000000, 104.339, -176.1274
6600.000000, 103.833, -175.3043
6700.000000, 103.423, -174.1948
6800.000000, 103.120, -173.0746
6900.000000, 102.911, -172.2492
7000.000000, 102.760, -171.7296
7100.000000, 102.637, -171.5069
7200.000000, 102.519, -171.6632
7300.000000, 102.352, -172.1143
7400.000000, 102.079, -172.1357
7500.000000, 101.933, -170.7979
7620.000000, 102.096, -170.4603
7750.000000, 102.287, -172.3212
7880.000000, 102.277, -175.4407
8000.000000, 102.072, -179.0569
8120.000000, 101.682, 177.0375
8250.000000, 101.060, 172.9459
8380.000000, 100.264, 169.5508
8500.000000, 99.432, 167.2081
8620.000000, 98.554, 165.6900
8750.000000, 97.584, 164.7837
8850.000000, 96.849, 164.5680
9000.000000, 95.794, 164.7035
9120.000000, 94.999, 164.9979
9250.000000, 94.173, 165.2250
9380.000000, 93.360, 165.1997
9500.000000, 92.578, 164.7564
9620.000000, 91.717, 164.0229
9750.000000, 90.631, 163.1209
9880.000000, 89.334, 162.7042
10000.000000, 87.942, 163.6027
10150.000000, 86.027, 167.7189
10300.000000, 84.208, 176.3569
10440.000000, 83.035, -172.2787
10600.000000, 82.551, -160.0906
10750.000000, 82.619, -152.1773
10900.000000, 82.851, -147.9030
11060.000000, 83.058, -147.2174
11200.000000, 83.014, -150.0312
11380.000000, 82.294, -157.7179
11500.000000, 81.314, -164.9141
11720.000000, 78.555, 171.8589
11800.000000, 77.400, 154.6287
12060.000000, 78.421, 10.1753
12200.000000, 80.720, -16.3091
12410.000000, 82.894, -38.3655
12500.000000, 83.473, -44.9867
12650.000000, 84.178, -54.3903
12800.000000, 84.560, -63.2454
13150.000000, 83.667, -81.0952
13200.000000, 83.368, -82.6179
13400.000000, 82.155, -85.9002
13600.000000, 81.164, -87.4871
13800.000000, 80.226, -89.1082
14000.000000, 79.160, -91.0996
14300.000000, 76.900, -91.9368
14500.000000, 75.107, -88.1309
14750.000000, 73.204, -77.5159
15000.000000, 72.172, -65.2608
15250.000000, 71.731, -54.4359
15500.000000, 71.890, -44.8631
15750.000000, 72.452, -40.4697
16000.000000, 72.561, -40.4790
16250.000000, 72.253, -39.9514
16500.000000, 71.902, -40.3525
16750.000000, 71.043, -42.6554
17000.000000, 69.439, -42.3593
17250.000000, 67.594, -36.4310
17500.000000, 66.047, -26.1144
17750.000000, 64.999, -13.7739
18000.000000, 64.422, -1.0444
18250.000000, 64.247, 11.2880
18500.000000, 64.513, 22.4700
18750.000000, 65.233, 30.9166
19000.000000, 66.283, 34.2451
19250.000000, 67.351, 30.1349
19500.000000, 68.013, 17.0556
19750.000000, 67.925, -6.1564
20000.000000, 66.829, -41.7905
20300.000000, 63.906, -107.0201
20600.000000, 59.223, -174.9344
20900.000000, 53.193, 158.0662
21200.000000, 47.831, -179.7762
21400.000000, 46.947, -145.8208
21800.000000, 47.962, -108.5730
22000.000000, 47.500, -99.6636
22400.000000, 44.154, -88.7817
22700.000000, 41.320, -92.8349
23000.000000, 39.842, -114.4619
23300.000000, 39.548, -79.5264
23600.000000, 39.180, -85.2823
24000.000000, 38.704, 81.8372
