* Measurement data measured by REW V5.31
* Source: Headset (DS by VECLAN.COM), MICROPHONE (Master Volume), L, volume: 1.000. Timing signal peak level -10.5 dBFS, measurement signal peak level -6.7 dBFS
* Format: 4M Log Swept Sine, 1 sweep at -12.0 dBFS using an acoustic timing reference
* Dated: Apr 13, 2024 9:49:57 PM
* REW Settings:
*  C-weighting compensation: Off
*  Target level: 85.0 dB
* Note: ; Delay -0.0961 ms (-33 mm, -1.3 in) using estimated IR delay relative to Acoustic reference played from HEADPHONE L with no timing offset
* Measurement: Samsung Earbuds L1
* Smoothing: 1/24 octave
* Frequency Step: 1/48 octave
* Start Frequency: 1.000 Hz
*
* Freq(Hz), SPL(dB), Phase(degrees)
1.000000, 48.656, 21.0742
1.015000, 48.890, 20.4529
1.030000, 49.118, 19.8603
1.044000, 49.324, 19.3301
1.060000, 49.553, 18.7477
1.075000, 49.759, 18.2206
1.090000, 49.958, 17.7074
1.106000, 50.162, 17.1643
1.120000, 50.337, 16.6792
1.138000, 50.559, 16.0367
1.150000, 50.705, 15.5987
1.172000, 50.966, 14.7769
1.180000, 51.059, 14.4693
1.206000, 51.354, 13.4704
1.220000, 51.508, 12.9369
1.241000, 51.729, 12.1485
1.250000, 51.821, 11.8164
1.265000, 51.969, 11.2726
1.280000, 52.111, 10.7426
1.315000, 52.417, 9.5697
1.320000, 52.457, 9.4103
1.340000, 52.611, 8.7953
1.360000, 52.750, 8.2195
1.380000, 52.874, 7.6463
1.400000, 52.981, 7.1012
1.430000, 53.110, 6.3669
1.450000, 53.173, 5.9330
1.475000, 53.223, 5.4369
1.500000, 53.236, 4.9474
1.525000, 53.214, 4.4468
1.550000, 53.159, 3.9394
1.575000, 53.075, 3.4107
1.600000, 52.968, 2.8498
1.625000, 52.840, 2.3023
1.650000, 52.695, 1.7740
1.675000, 52.538, 1.2710
1.700000, 52.373, 0.7987
1.725000, 52.203, 0.3625
1.750000, 52.033, -0.0323
1.775000, 51.867, -0.3977
1.800000, 51.708, -0.7455
1.825000, 51.559, -1.0421
1.850000, 51.417, -1.3059
1.875000, 51.274, -1.5629
1.900000, 51.128, -1.8205
1.925000, 50.979, -2.0768
1.950000, 50.827, -2.3275
1.975000, 50.671, -2.5853
2.000000, 50.513, -2.8619
2.030000, 50.320, -3.1670
2.060000, 50.124, -3.4365
2.090000, 49.925, -3.6606
2.120000, 49.723, -3.8290
2.140000, 49.588, -3.9050
2.180000, 49.314, -3.9772
2.200000, 49.176, -3.9807
2.240000, 48.892, -3.9023
2.270000, 48.672, -3.7841
2.300000, 48.447, -3.6197
2.330000, 48.218, -3.4104
2.360000, 47.987, -3.1572
2.400000, 47.678, -2.7986
2.430000, 47.449, -2.4839
2.470000, 47.148, -1.9922
2.500000, 46.928, -1.5676
2.540000, 46.645, -0.9222
2.580000, 46.374, -0.1852
2.620000, 46.107, 0.6614
2.650000, 45.909, 1.3955
2.690000, 45.649, 2.4864
2.720000, 45.458, 3.3725
2.760000, 45.212, 4.6199
2.800000, 44.978, 5.8698
2.850000, 44.707, 7.4303
2.900000, 44.465, 8.9322
2.950000, 44.257, 10.3612
3.000000, 44.085, 11.7800
3.040000, 43.972, 12.9291
3.070000, 43.898, 13.7871
3.110000, 43.811, 14.8986
3.150000, 43.733, 15.9432
3.200000, 43.643, 17.0766
3.250000, 43.554, 17.9865
3.300000, 43.463, 18.6492
3.350000, 43.379, 19.0844
3.400000, 43.309, 19.3012
3.450000, 43.247, 19.3413
3.500000, 43.183, 19.2318
3.550000, 43.107, 18.9809
3.600000, 43.010, 18.5612
3.650000, 42.885, 17.9688
3.700000, 42.734, 17.1514
3.750000, 42.568, 16.0560
3.820000, 42.306, 14.0823
3.870000, 42.091, 12.4578
3.950000, 41.682, 9.6507
4.000000, 41.377, 7.7929
4.060000, 40.957, 5.3701
4.120000, 40.483, 2.4847
4.180000, 39.959, -0.9412
4.250000, 39.284, -5.5304
4.310000, 38.650, -9.7940
4.370000, 37.958, -14.2611
4.440000, 37.029, -20.0306
4.500000, 36.090, -26.0739
4.550000, 35.241, -32.1521
4.620000, 34.059, -42.3857
4.680000, 33.162, -52.6009
4.750000, 32.388, -65.9030
4.820000, 31.967, -81.4314
4.870000, 31.850, -94.5240
4.940000, 31.883, -114.3563
5.000000, 32.045, -130.4006
5.080000, 32.387, -148.1556
5.150000, 32.781, -161.0887
5.220000, 33.306, -173.3383
5.300000, 34.046, 173.4647
5.380000, 34.835, 161.7073
5.450000, 35.482, 152.3867
5.520000, 36.039, 143.1755
5.600000, 36.579, 131.8379
5.700000, 37.193, 117.1431
5.800000, 37.850, 102.9861
5.900000, 38.635, 88.8763
6.000000, 39.541, 74.3146
6.080000, 40.318, 63.2523
6.150000, 41.019, 54.3828
6.220000, 41.730, 46.0786
6.300000, 42.565, 36.9438
6.400000, 43.636, 26.1998
6.500000, 44.684, 16.6731
6.600000, 45.655, 8.1713
6.700000, 46.545, 0.0926
6.800000, 47.363, -7.5120
6.900000, 48.101, -14.3939
7.000000, 48.748, -20.7468
7.100000, 49.308, -26.9693
7.200000, 49.780, -32.9066
7.300000, 50.166, -38.3411
7.400000, 50.464, -43.4587
7.500000, 50.675, -48.5212
7.620000, 50.809, -54.2071
7.750000, 50.803, -59.6224
7.880000, 50.641, -64.6858
8.000000, 50.342, -68.7938
8.120000, 49.881, -71.9403
8.250000, 49.201, -74.3547
8.380000, 48.395, -75.3544
8.500000, 47.547, -74.2359
8.620000, 46.624, -70.6594
8.750000, 45.879, -63.9931
8.850000, 45.726, -57.2026
9.000000, 46.155, -45.9721
9.120000, 46.860, -38.8262
9.250000, 47.881, -34.2462
9.380000, 49.073, -32.3179
9.500000, 50.095, -32.4366
9.620000, 50.928, -34.0687
9.750000, 51.642, -36.9622
9.880000, 52.154, -40.4951
10.000000, 52.441, -44.3224
10.150000, 52.547, -49.7124
10.300000, 52.364, -55.1205
10.440000, 51.930, -60.3883
10.600000, 51.018, -66.1529
10.750000, 49.667, -70.6833
10.900000, 47.808, -73.9383
11.060000, 45.066, -72.5663
11.200000, 42.045, -58.9736
11.380000, 40.866, -2.8790
11.500000, 43.345, 20.1588
11.720000, 48.646, 26.6685
11.800000, 50.026, 25.1686
12.060000, 53.192, 16.3065
12.200000, 54.377, 10.1852
12.410000, 55.625, 0.2629
12.500000, 56.010, -4.0843
12.650000, 56.469, -11.5792
12.800000, 56.718, -19.0565
13.150000, 56.541, -36.3196
13.200000, 56.429, -38.6849
13.400000, 55.759, -47.8650
13.600000, 54.687, -56.0818
13.800000, 53.160, -62.5718
14.000000, 51.054, -65.8116
14.300000, 47.483, -56.5891
14.500000, 46.529, -35.3315
14.750000, 47.922, -12.2092
15.000000, 50.631, -6.6371
15.250000, 52.577, -9.8027
15.500000, 53.729, -15.7278
15.750000, 54.238, -22.0533
16.000000, 54.245, -27.2149
16.250000, 53.904, -30.0332
16.500000, 53.467, -29.5297
16.750000, 53.302, -25.6357
17.000000, 53.713, -20.3743
17.250000, 54.624, -16.5237
17.500000, 55.713, -15.4734
17.750000, 56.684, -16.8662
18.000000, 57.400, -19.7343
18.250000, 57.823, -23.1868
18.500000, 57.969, -26.3959
18.750000, 57.892, -28.7375
19.000000, 57.676, -29.7169
19.250000, 57.446, -29.1194
19.500000, 57.334, -27.1543
19.750000, 57.425, -24.5110
20.000000, 57.722, -22.1216
20.299999, 58.227, -20.5187
20.600000, 58.724, -20.4537
20.900000, 59.087, -21.4910
21.200001, 59.268, -22.9685
21.400000, 59.295, -23.8625
21.799999, 59.212, -24.7952
22.000000, 59.162, -24.7205
22.400000, 59.190, -23.8734
22.700001, 59.380, -23.3688
23.000000, 59.673, -23.7235
23.299999, 59.969, -25.2692
23.600000, 60.159, -27.8561
24.000000, 60.113, -32.0707
24.299999, 59.811, -34.9138
24.700001, 59.106, -36.6383
25.000000, 58.509, -35.3369
25.400000, 58.062, -29.8493
25.799999, 58.409, -22.8075
26.200001, 59.376, -18.2330
26.500000, 60.203, -17.1124
26.900000, 61.199, -17.7682
27.200001, 61.827, -19.1626
27.600000, 62.527, -21.6316
28.000000, 63.078, -24.5923
28.500000, 63.488, -28.7099
29.000000, 63.477, -32.1118
29.500000, 63.132, -32.5509
30.000000, 62.980, -28.6332
30.400000, 63.412, -24.3683
30.700001, 64.018, -22.4722
31.100000, 64.883, -22.6718
31.500000, 65.508, -25.2535
32.000000, 65.783, -29.3271
32.500000, 65.652, -31.8157
33.000000, 65.528, -31.8119
33.500000, 65.699, -31.0473
34.000000, 66.007, -31.4786
34.500000, 66.166, -32.8637
35.000000, 66.139, -33.6416
35.500000, 66.141, -33.0764
36.000000, 66.345, -32.0239
36.500000, 66.677, -31.6806
37.000000, 66.976, -32.1119
37.500000, 67.198, -32.6639
38.200001, 67.493, -33.0613
38.700001, 67.732, -33.3609
39.500000, 68.089, -34.1442
40.000000, 68.286, -34.6689
40.599998, 68.507, -35.3007
41.200001, 68.698, -35.8648
41.799999, 68.875, -36.1783
42.500000, 69.126, -36.3544
43.099998, 69.363, -36.6782
43.700001, 69.567, -37.0794
44.400002, 69.778, -37.2426
45.000000, 69.982, -37.1667
45.500000, 70.164, -37.0937
46.200001, 70.418, -36.9089
46.799999, 70.666, -36.6833
47.500000, 70.988, -36.7836
48.200001, 71.247, -37.3687
48.700001, 71.369, -37.7354
49.400002, 71.517, -37.8587
50.000000, 71.671, -37.7959
50.799999, 71.895, -37.8936
51.500000, 72.076, -38.1244
52.200001, 72.242, -38.3718
53.000000, 72.425, -38.5215
53.799999, 72.648, -38.5721
54.500000, 72.875, -38.8431
55.200001, 73.083, -39.3190
56.000000, 73.301, -39.7444
57.000000, 73.621, -40.1252
58.000000, 73.988, -40.8625
59.000000, 74.288, -42.3174
60.000000, 74.387, -43.3229
60.799999, 74.477, -42.8666
61.500000, 74.681, -42.2769
62.200001, 74.926, -42.1841
63.000000, 75.159, -42.4667
64.000000, 75.394, -42.7491
65.000000, 75.616, -42.9410
66.000000, 75.841, -43.1277
67.000000, 76.075, -43.4310
68.000000, 76.305, -43.8734
69.000000, 76.529, -44.3485
70.000000, 76.753, -44.8238
71.000000, 76.971, -45.2762
72.000000, 77.190, -45.6590
73.000000, 77.410, -46.0770
74.000000, 77.607, -46.5225
75.000000, 77.794, -46.8441
76.199997, 78.030, -47.2516
77.500000, 78.273, -47.7908
78.800003, 78.515, -48.2413
80.000000, 78.749, -48.6598
81.199997, 78.985, -49.0875
82.500000, 79.232, -49.6063
83.800003, 79.459, -50.1037
85.000000, 79.667, -50.5305
86.199997, 79.875, -51.0446
87.500000, 80.087, -51.6345
88.500000, 80.254, -52.0590
90.000000, 80.503, -52.7522
91.199997, 80.699, -53.2507
92.500000, 80.913, -53.7364
93.800003, 81.141, -54.2007
95.000000, 81.346, -54.8119
96.199997, 81.516, -55.4382
97.500000, 81.686, -55.9213
98.800003, 81.872, -56.2870
100.000000, 82.059, -56.7007
101.500000, 82.278, -57.4286
103.000000, 82.469, -58.1379
104.400002, 82.644, -58.7563
106.000000, 82.845, -59.4357
107.500000, 83.031, -60.0992
109.000000, 83.211, -60.7019
110.599998, 83.414, -61.3875
112.000000, 83.580, -62.1111
113.800003, 83.780, -62.9443
115.000000, 83.924, -63.4253
117.199997, 84.212, -64.2432
118.000000, 84.322, -64.5414
120.599998, 84.629, -65.8386
122.000000, 84.740, -66.3882
124.099998, 84.923, -67.1234
125.000000, 85.008, -67.5322
126.500000, 85.145, -68.3144
128.000000, 85.276, -69.0538
131.500000, 85.612, -70.5219
132.000000, 85.657, -70.7224
134.000000, 85.835, -71.4319
136.000000, 86.022, -72.1584
138.000000, 86.198, -72.9432
140.000000, 86.368, -73.6411
143.000000, 86.611, -74.7592
145.000000, 86.766, -75.5963
147.500000, 86.960, -76.6810
150.000000, 87.155, -77.5911
152.500000, 87.333, -78.4415
155.000000, 87.490, -79.4005
157.500000, 87.646, -80.4161
160.000000, 87.808, -81.3334
162.500000, 87.962, -82.1616
165.000000, 88.105, -83.0388
167.500000, 88.235, -83.9449
170.000000, 88.363, -84.7917
172.500000, 88.484, -85.6292
175.000000, 88.607, -86.4287
177.500000, 88.730, -87.2474
180.000000, 88.840, -88.1323
182.500000, 88.939, -89.0201
185.000000, 89.043, -89.7040
187.500000, 89.132, -90.3661
190.000000, 89.191, -91.0885
192.500000, 89.286, -91.8048
195.000000, 89.420, -92.7102
197.500000, 89.532, -93.4634
200.000000, 89.622, -94.0803
203.000000, 89.723, -94.9606
206.000000, 89.821, -95.8954
209.000000, 89.897, -96.7302
212.000000, 89.967, -97.4872
214.000000, 90.019, -97.9819
218.000000, 90.120, -98.9661
220.000000, 90.168, -99.4401
224.000000, 90.271, -100.3489
227.000000, 90.352, -100.9768
230.000000, 90.429, -101.6158
233.000000, 90.501, -102.2767
236.000000, 90.572, -102.9347
240.000000, 90.661, -103.8575
243.000000, 90.709, -104.5622
247.000000, 90.764, -105.3580
250.000000, 90.808, -105.9027
254.000000, 90.861, -106.7072
258.000000, 90.908, -107.5921
262.000000, 90.952, -108.3695
265.000000, 90.982, -108.8473
269.000000, 91.004, -109.5048
272.000000, 91.014, -109.9761
276.000000, 91.027, -110.5195
280.000000, 91.043, -110.9399
285.000000, 91.083, -111.3672
290.000000, 91.127, -111.7276
295.000000, 91.183, -112.0782
300.000000, 91.236, -112.5054
304.000000, 91.272, -112.8298
307.000000, 91.301, -113.0157
311.000000, 91.345, -113.2762
315.000000, 91.390, -113.5688
320.000000, 91.446, -113.9037
325.000000, 91.496, -114.2113
330.000000, 91.541, -114.5022
335.000000, 91.589, -114.7732
340.000000, 91.635, -115.0397
345.000000, 91.680, -115.2997
350.000000, 91.725, -115.4907
355.000000, 91.770, -115.7297
360.000000, 91.821, -115.9456
365.000000, 91.876, -116.0901
370.000000, 91.931, -116.2468
375.000000, 91.983, -116.5013
382.000000, 92.048, -116.9200
387.000000, 92.089, -117.1766
395.000000, 92.156, -117.5476
400.000000, 92.202, -117.7764
406.000000, 92.258, -118.0624
412.000000, 92.312, -118.3900
418.000000, 92.369, -118.7990
425.000000, 92.438, -119.4693
431.000000, 92.465, -120.3356
437.000000, 92.398, -121.4811
444.000000, 92.151, -122.1021
450.000000, 91.954, -120.9899
455.000000, 91.936, -119.6079
462.000000, 92.054, -118.4865
468.000000, 92.165, -118.1051
475.000000, 92.261, -117.9229
482.000000, 92.348, -117.7219
487.000000, 92.421, -117.5575
494.000000, 92.538, -117.4694
500.000000, 92.633, -117.5695
508.000000, 92.729, -117.8362
515.000000, 92.786, -118.0411
522.000000, 92.833, -118.1711
530.000000, 92.882, -118.2899
538.000000, 92.927, -118.3861
545.000000, 92.963, -118.4449
552.000000, 93.004, -118.4868
560.000000, 93.051, -118.5255
570.000000, 93.103, -118.5112
580.000000, 93.148, -118.4991
590.000000, 93.195, -118.4578
600.000000, 93.242, -118.3907
608.000000, 93.276, -118.3615
615.000000, 93.302, -118.3139
622.000000, 93.327, -118.2346
630.000000, 93.359, -118.1288
640.000000, 93.400, -118.0104
650.000000, 93.438, -117.8977
660.000000, 93.469, -117.7614
670.000000, 93.502, -117.6077
680.000000, 93.534, -117.4772
690.000000, 93.563, -117.2913
700.000000, 93.593, -117.0846
710.000000, 93.621, -116.8809
720.000000, 93.648, -116.6453
730.000000, 93.678, -116.4237
740.000000, 93.711, -116.2005
750.000000, 93.741, -115.9532
762.000000, 93.775, -115.6460
775.000000, 93.810, -115.2772
788.000000, 93.848, -114.9034
800.000000, 93.884, -114.5525
812.000000, 93.917, -114.1906
825.000000, 93.950, -113.8029
838.000000, 93.982, -113.3996
850.000000, 94.012, -113.0198
862.000000, 94.042, -112.6454
875.000000, 94.075, -112.2259
885.000000, 94.097, -111.8977
900.000000, 94.127, -111.3933
912.000000, 94.150, -110.9668
925.000000, 94.173, -110.4854
938.000000, 94.194, -110.0032
950.000000, 94.214, -109.5252
962.000000, 94.232, -109.0329
975.000000, 94.248, -108.4720
988.000000, 94.262, -107.8900
1000.000000, 94.277, -107.3226
1015.000000, 94.295, -106.5918
1030.000000, 94.311, -105.8054
1044.000000, 94.330, -105.0372
1060.000000, 94.357, -104.1504
1075.000000, 94.385, -103.2938
1090.000000, 94.420, -102.3750
1106.000000, 94.472, -101.3618
1120.000000, 94.523, -100.4821
1138.000000, 94.592, -99.3505
1150.000000, 94.641, -98.5573
1172.000000, 94.745, -97.0312
1180.000000, 94.787, -96.4785
1206.000000, 94.929, -94.6680
1220.000000, 95.011, -93.6615
1241.000000, 95.151, -92.1461
1250.000000, 95.215, -91.4832
1265.000000, 95.326, -90.3815
1280.000000, 95.440, -89.2732
1315.000000, 95.722, -86.6067
1320.000000, 95.765, -86.2267
1340.000000, 95.947, -84.7140
1360.000000, 96.132, -83.2017
1380.000000, 96.326, -81.7578
1400.000000, 96.536, -80.2913
1430.000000, 96.877, -78.0505
1450.000000, 97.126, -76.6118
1475.000000, 97.451, -74.8716
1500.000000, 97.802, -73.1646
1525.000000, 98.180, -71.5720
1550.000000, 98.575, -70.0759
1575.000000, 98.993, -68.7469
1600.000000, 99.419, -67.6373
1625.000000, 99.864, -66.6487
1650.000000, 100.330, -65.8859
1675.000000, 100.803, -65.4330
1700.000000, 101.271, -65.1821
1725.000000, 101.741, -65.1235
1750.000000, 102.210, -65.2791
1775.000000, 102.672, -65.7155
1800.000000, 103.115, -66.4039
1825.000000, 103.538, -67.2639
1850.000000, 103.940, -68.3137
1875.000000, 104.315, -69.5024
1900.000000, 104.664, -70.8132
1925.000000, 104.991, -72.2161
1950.000000, 105.295, -73.6891
1975.000000, 105.573, -75.2275
2000.000000, 105.831, -76.7913
2030.000000, 106.116, -78.7363
2060.000000, 106.370, -80.7302
2090.000000, 106.596, -82.7426
2120.000000, 106.797, -84.8162
2140.000000, 106.915, -86.2284
2180.000000, 107.113, -88.9922
2200.000000, 107.197, -90.3846
2240.000000, 107.329, -93.1859
2270.000000, 107.397, -95.2811
2300.000000, 107.439, -97.3803
2330.000000, 107.452, -99.4552
2360.000000, 107.438, -101.4786
2400.000000, 107.377, -104.1113
2430.000000, 107.298, -105.9904
2470.000000, 107.152, -108.2913
2500.000000, 107.019, -109.8772
2540.000000, 106.815, -111.7814
2580.000000, 106.584, -113.4480
2620.000000, 106.331, -114.8521
2650.000000, 106.130, -115.7383
2690.000000, 105.849, -116.6448
2720.000000, 105.638, -117.1271
2760.000000, 105.369, -117.5934
2800.000000, 105.102, -117.9382
2850.000000, 104.764, -118.1353
2900.000000, 104.434, -118.0507
2950.000000, 104.115, -117.7161
3000.000000, 103.814, -117.1877
3040.000000, 103.583, -116.6517
3070.000000, 103.414, -116.1870
3110.000000, 103.198, -115.4650
3150.000000, 102.995, -114.6511
3200.000000, 102.753, -113.5392
3250.000000, 102.528, -112.3251
3300.000000, 102.322, -110.9924
3350.000000, 102.134, -109.6192
3400.000000, 101.965, -108.1772
3450.000000, 101.815, -106.6901
3500.000000, 101.685, -105.1770
3550.000000, 101.568, -103.6450
3600.000000, 101.457, -102.1037
3650.000000, 101.362, -100.4769
3700.000000, 101.281, -98.8244
3750.000000, 101.212, -97.1437
3820.000000, 101.145, -94.7400
3870.000000, 101.117, -93.0773
3950.000000, 101.088, -90.4692
4000.000000, 101.087, -88.8600
4060.000000, 101.096, -87.0060
4120.000000, 101.120, -85.2100
4180.000000, 101.146, -83.5142
4250.000000, 101.174, -81.5330
4310.000000, 101.211, -79.7512
4370.000000, 101.261, -77.9684
4440.000000, 101.356, -75.8797
4500.000000, 101.468, -74.3159
4550.000000, 101.573, -73.1494
4620.000000, 101.728, -71.7686
4680.000000, 101.861, -70.7438
4750.000000, 102.027, -69.6882
4820.000000, 102.216, -68.9271
4870.000000, 102.354, -68.6768
4940.000000, 102.521, -68.7976
5000.000000, 102.591, -69.3095
5080.000000, 102.516, -69.9215
5150.000000, 102.343, -69.3890
5220.000000, 102.274, -67.4813
5300.000000, 102.504, -65.3146
5380.000000, 102.911, -64.9725
5450.000000, 103.205, -66.2617
5520.000000, 103.347, -68.3680
5600.000000, 103.299, -70.9706
5700.000000, 103.015, -73.3155
5800.000000, 102.730, -74.8038
5900.000000, 102.407, -76.8192
6000.000000, 101.838, -78.6689
6080.000000, 101.285, -78.8420
6150.000000, 100.858, -78.3107
6220.000000, 100.486, -77.8123
6300.000000, 100.037, -77.3496
6400.000000, 99.386, -76.1418
6500.000000, 98.761, -73.7230
6600.000000, 98.244, -70.7167
6700.000000, 97.832, -67.4048
6800.000000, 97.543, -64.0902
6900.000000, 97.348, -61.1095
7000.000000, 97.203, -58.3950
7100.000000, 97.096, -55.8136
7200.000000, 97.026, -53.5857
7300.000000, 96.905, -51.8135
7400.000000, 96.683, -49.2742
7500.000000, 96.664, -45.4818
7620.000000, 96.962, -42.4199
7750.000000, 97.350, -41.2372
7880.000000, 97.598, -41.6929
8000.000000, 97.668, -43.3062
8120.000000, 97.567, -45.7213
8250.000000, 97.236, -48.9185
8380.000000, 96.646, -52.0930
8500.000000, 95.896, -54.5038
8620.000000, 95.004, -56.0626
8750.000000, 93.930, -56.7531
8850.000000, 93.068, -56.5197
9000.000000, 91.788, -55.2349
9120.000000, 90.797, -53.7476
9250.000000, 89.735, -51.9818
9380.000000, 88.662, -50.0720
9500.000000, 87.647, -48.3252
9620.000000, 86.570, -46.5651
9750.000000, 85.278, -44.4114
9880.000000, 83.822, -41.3884
10000.000000, 82.363, -37.0181
10150.000000, 80.526, -28.7862
10300.000000, 78.942, -17.2455
10440.000000, 77.995, -5.1318
10600.000000, 77.524, 6.4425
10750.000000, 77.305, 13.5881
10900.000000, 76.984, 17.4914
11060.000000, 76.328, 18.8992
11200.000000, 75.310, 18.6562
11380.000000, 73.425, 17.7128
11500.000000, 72.018, 14.3896
11720.000000, 69.182, -13.9601
11800.000000, 68.519, -44.1545
12060.000000, 71.634, -132.3747
12200.000000, 74.491, -145.0275
12410.000000, 77.950, -156.7192
12500.000000, 79.098, -161.3511
12650.000000, 80.585, -169.3006
12800.000000, 81.540, -177.5031
13150.000000, 81.977, 165.4126
13200.000000, 81.871, 163.5385
13400.000000, 81.253, 158.1988
13600.000000, 80.760, 154.9604
13800.000000, 80.478, 149.7986
14000.000000, 79.799, 141.1017
14300.000000, 77.014, 127.8941
14500.000000, 74.079, 124.2679
14750.000000, 69.797, 129.7975
15000.000000, 65.992, 148.5395
15250.000000, 64.221, 169.0187
15500.000000, 63.695, 177.4017
15750.000000, 62.551, 174.9142
16000.000000, 59.954, 166.4708
16250.000000, 56.001, 148.0538
16500.000000, 52.714, 84.5452
16750.000000, 53.965, 33.0882
17000.000000, 56.599, 25.0258
17250.000000, 58.718, 25.8750
17500.000000, 60.160, 28.5922
17750.000000, 61.022, 33.5248
18000.000000, 61.725, 41.8507
18250.000000, 62.765, 51.7260
18500.000000, 64.055, 58.9396
18750.000000, 65.042, 62.3996
19000.000000, 65.581, 65.0444
19250.000000, 65.985, 67.7281
19500.000000, 66.428, 67.6423
19750.000000, 66.491, 61.1688
20000.000000, 65.133, 48.8522
20300.000000, 60.649, 36.3388
20600.000000, 53.793, 43.5127
20900.000000, 50.112, -166.7696
21200.000000, 51.423, -148.3875
21400.000000, 52.222, -139.4530
21800.000000, 52.176, -125.0865
22000.000000, 50.900, -119.7528
22400.000000, 45.126, -112.5219
22700.000000, 38.755, -110.5392
23000.000000, 32.527, -114.1913
23300.000000, 29.338, -54.3065
23600.000000, 28.574, 14.9688
24000.000000, 28.130, 109.0916
