* Measurement data measured by REW V5.31
* Source: Headset (DS by VECLAN.COM), MICROPHONE (Master Volume), L, volume: 0.720. Timing signal peak level -16.9 dBFS, measurement signal peak level -14.3 dBFS
* Format: 4M Log Swept Sine, 1 sweep at -12.0 dBFS using an acoustic timing reference
* Dated: Apr 20, 2024 10:40:00 PM
* REW Settings:
*  C-weighting compensation: Off
*  Target level: 75.0 dB
* Note: ; Delay -0.0326 ms (-11 mm, -0.44 in) using estimated IR delay relative to Acoustic reference played from HEADPHONE R with no timing offset
* Measurement: Samsung Earbuds R5
* Smoothing: 1/24 octave
* Frequency Step: 1/48 octave
* Start Frequency: 1.000 Hz
*
* Freq(Hz), SPL(dB), Phase(degrees)
1.000000, 67.323, -88.8553
1.015000, 67.341, -90.3127
1.030000, 67.360, -91.7288
1.044000, 67.379, -93.0124
1.060000, 67.400, -94.4342
1.075000, 67.421, -95.7243
1.090000, 67.443, -96.9763
1.106000, 67.468, -98.2879
1.120000, 67.495, -99.4444
1.138000, 67.535, -100.9638
1.150000, 67.566, -101.9980
1.172000, 67.629, -103.9418
1.180000, 67.654, -104.6673
1.206000, 67.740, -107.0627
1.220000, 67.788, -108.3722
1.241000, 67.861, -110.3542
1.250000, 67.892, -111.2078
1.265000, 67.944, -112.6327
1.280000, 67.994, -114.0566
1.315000, 68.100, -117.3494
1.320000, 68.114, -117.8139
1.340000, 68.164, -119.6503
1.360000, 68.206, -121.4428
1.380000, 68.236, -123.2204
1.400000, 68.254, -124.9501
1.430000, 68.253, -127.4087
1.450000, 68.232, -128.9494
1.475000, 68.180, -130.7878
1.500000, 68.102, -132.6110
1.525000, 67.998, -134.4562
1.550000, 67.873, -136.3190
1.575000, 67.729, -138.2108
1.600000, 67.570, -140.1381
1.625000, 67.397, -142.0504
1.650000, 67.215, -143.9366
1.675000, 67.025, -145.7858
1.700000, 66.831, -147.5873
1.725000, 66.636, -149.3314
1.750000, 66.442, -151.0090
1.775000, 66.253, -152.6292
1.800000, 66.070, -154.2023
1.825000, 65.898, -155.6984
1.850000, 65.733, -157.1580
1.875000, 65.573, -158.6370
1.900000, 65.415, -160.1513
1.925000, 65.258, -161.6967
1.950000, 65.102, -163.2642
1.975000, 64.946, -164.8609
2.000000, 64.789, -166.4921
2.030000, 64.598, -168.4339
2.060000, 64.403, -170.3402
2.090000, 64.203, -172.1888
2.120000, 63.997, -173.9566
2.140000, 63.855, -175.0793
2.180000, 63.561, -177.1888
2.200000, 63.409, -178.1910
2.240000, 63.098, 179.8448
2.270000, 62.863, 178.3476
2.300000, 62.625, 176.8218
2.330000, 62.382, 175.2735
2.360000, 62.133, 173.7125
2.400000, 61.788, 171.5876
2.430000, 61.518, 170.0132
2.470000, 61.139, 167.9890
2.500000, 60.839, 166.5594
2.540000, 60.416, 164.8194
2.580000, 59.969, 163.2599
2.620000, 59.509, 161.7643
2.650000, 59.159, 160.6647
2.690000, 58.677, 159.2144
2.720000, 58.302, 158.1404
2.760000, 57.777, 156.7412
2.800000, 57.214, 155.3655
2.850000, 56.447, 153.8040
2.900000, 55.593, 152.5574
2.950000, 54.605, 151.7886
3.000000, 53.402, 151.5420
3.040000, 52.301, 151.7607
3.070000, 51.425, 152.2063
3.110000, 50.236, 153.2429
3.150000, 49.077, 154.8909
3.200000, 47.763, 158.0203
3.250000, 46.711, 162.7099
3.300000, 46.028, 169.4529
3.350000, 45.737, 179.0403
3.400000, 45.765, -168.4505
3.450000, 46.035, -154.7838
3.500000, 46.469, -142.5091
3.550000, 46.995, -133.0757
3.600000, 47.542, -126.5552
3.650000, 48.065, -122.3907
3.700000, 48.592, -119.9783
3.750000, 49.187, -118.7971
3.820000, 50.111, -118.4700
3.870000, 50.779, -118.7737
3.950000, 51.741, -119.7029
4.000000, 52.214, -120.4612
4.060000, 52.627, -121.6269
4.120000, 52.905, -123.2599
4.180000, 53.077, -125.2624
4.250000, 53.156, -127.7730
4.310000, 53.129, -129.8050
4.370000, 53.025, -131.5942
4.440000, 52.826, -133.5606
4.500000, 52.597, -135.4391
4.550000, 52.350, -137.1449
4.620000, 51.881, -139.5642
4.680000, 51.329, -141.3815
4.750000, 50.444, -142.8273
4.820000, 49.161, -143.4972
4.870000, 47.963, -143.5903
4.940000, 46.049, -142.9583
5.000000, 44.421, -141.1600
5.080000, 42.734, -135.0610
5.150000, 42.111, -123.0341
5.220000, 42.346, -101.1781
5.300000, 43.341, -71.0358
5.380000, 44.716, -51.7204
5.450000, 45.975, -43.9138
5.520000, 47.209, -40.7717
5.600000, 48.705, -40.0020
5.700000, 50.646, -40.9594
5.800000, 52.382, -42.9586
5.900000, 53.692, -45.7977
6.000000, 54.616, -49.4409
6.080000, 55.159, -52.5654
6.150000, 55.534, -55.2153
6.220000, 55.844, -57.7881
6.300000, 56.118, -60.8325
6.400000, 56.321, -64.9512
6.500000, 56.370, -69.0009
6.600000, 56.273, -72.5882
6.700000, 56.040, -75.9937
6.800000, 55.660, -79.3893
6.900000, 55.101, -82.3166
7.000000, 54.314, -84.2776
7.100000, 53.264, -85.2811
7.200000, 52.070, -85.0582
7.300000, 50.920, -82.6728
7.400000, 49.867, -76.6546
7.500000, 48.904, -65.7246
7.620000, 48.256, -47.6069
7.750000, 48.913, -30.0767
7.880000, 50.881, -19.6090
8.000000, 52.881, -15.4966
8.120000, 54.478, -15.0102
8.250000, 55.845, -16.7826
8.380000, 56.948, -19.6720
8.500000, 57.739, -23.0642
8.620000, 58.319, -27.0488
8.750000, 58.754, -31.4859
8.850000, 58.972, -34.8872
9.000000, 59.110, -40.1977
9.120000, 59.068, -44.2894
9.250000, 58.881, -48.3603
9.380000, 58.550, -52.2141
9.500000, 58.127, -55.3325
9.620000, 57.593, -57.7689
9.750000, 56.902, -59.6603
9.880000, 56.142, -60.5935
10.000000, 55.394, -60.2682
10.150000, 54.465, -58.1921
10.300000, 53.736, -54.5873
10.440000, 53.315, -50.1144
10.600000, 53.116, -44.9176
10.750000, 53.201, -41.1528
10.900000, 53.446, -38.6920
11.060000, 53.681, -37.5713
11.200000, 53.815, -37.6817
11.380000, 53.830, -38.4283
11.500000, 53.718, -39.0630
11.720000, 53.318, -39.7804
11.800000, 53.125, -39.6444
12.060000, 52.480, -37.4475
12.200000, 52.273, -35.0747
12.410000, 52.266, -30.7027
12.500000, 52.408, -29.0055
12.650000, 52.829, -26.7925
12.800000, 53.374, -25.8130
13.150000, 54.705, -28.8002
13.200000, 54.867, -29.7274
13.400000, 55.393, -34.3938
13.600000, 55.692, -40.0302
13.800000, 55.741, -46.3087
14.000000, 55.523, -52.6856
14.300000, 54.659, -61.8066
14.500000, 53.685, -66.7045
14.750000, 51.957, -70.0651
15.000000, 49.795, -67.4034
15.250000, 47.888, -53.8294
15.500000, 47.834, -31.3896
15.750000, 49.694, -15.5878
16.000000, 51.879, -10.2164
16.250000, 53.721, -10.4608
16.500000, 55.115, -13.1712
16.750000, 56.171, -16.8800
17.000000, 56.987, -20.9580
17.250000, 57.631, -25.2291
17.500000, 58.146, -29.6601
17.750000, 58.546, -34.3569
18.000000, 58.820, -39.4169
18.250000, 58.939, -44.9017
18.500000, 58.859, -50.7090
18.750000, 58.527, -56.6056
19.000000, 57.890, -62.2089
19.250000, 56.885, -66.7807
19.500000, 55.468, -69.0059
19.750000, 53.749, -66.5313
20.000000, 52.250, -56.2579
20.299999, 52.211, -36.4677
20.600000, 54.055, -24.1583
20.900000, 56.132, -22.8702
21.200001, 57.637, -27.4051
21.400000, 58.284, -31.8084
21.799999, 58.822, -41.2290
22.000000, 58.772, -45.3966
22.400000, 58.240, -50.9823
22.700001, 57.737, -51.9189
23.000000, 57.466, -50.4491
23.299999, 57.577, -48.3456
23.600000, 57.933, -47.4290
24.000000, 58.296, -48.7480
24.299999, 58.222, -50.5198
24.700001, 57.553, -51.0013
25.000000, 56.803, -47.5978
25.400000, 56.287, -36.1677
25.799999, 57.168, -22.8949
26.200001, 58.858, -16.6576
26.500000, 60.008, -16.6658
26.900000, 61.036, -20.1542
27.200001, 61.389, -23.9057
27.600000, 61.338, -28.8640
28.000000, 60.782, -32.3725
28.500000, 59.682, -32.8632
29.000000, 58.724, -28.8401
29.500000, 58.293, -23.8807
30.000000, 58.019, -20.4826
30.400000, 57.700, -17.2136
30.700001, 57.582, -13.2017
31.100000, 58.037, -6.8476
31.500000, 59.276, -3.5422
32.000000, 61.031, -7.2708
32.500000, 62.126, -17.0855
33.000000, 62.214, -28.3598
33.500000, 61.305, -36.1671
34.000000, 60.023, -34.7366
34.500000, 60.045, -24.4301
35.000000, 61.608, -18.6265
35.500000, 63.058, -21.2179
36.000000, 63.704, -26.7144
36.500000, 63.735, -30.5210
37.000000, 63.729, -30.9782
37.500000, 64.167, -30.4056
38.200001, 65.062, -33.7038
38.700001, 65.281, -38.2524
39.500000, 64.859, -42.2775
40.000000, 64.752, -40.9902
40.599998, 65.218, -39.3790
41.200001, 65.716, -40.5940
41.799999, 65.718, -41.9218
42.500000, 65.491, -38.8983
43.099998, 65.743, -34.0101
43.700001, 66.212, -30.8937
44.400002, 66.503, -28.6594
45.000000, 66.708, -26.3834
45.500000, 66.991, -25.4387
46.200001, 67.242, -27.3587
46.799999, 67.039, -30.5048
47.500000, 66.597, -32.9891
48.200001, 66.587, -35.1854
48.700001, 66.792, -38.1284
49.400002, 66.973, -42.3892
50.000000, 67.204, -42.9339
50.799999, 68.338, -40.6765
51.500000, 69.526, -40.7200
52.200001, 70.240, -41.0175
53.000000, 70.706, -39.0668
53.799999, 70.865, -35.1655
54.500000, 70.934, -29.4220
55.200001, 71.294, -26.6200
56.000000, 70.882, -30.2182
57.000000, 70.065, 11.3197
58.000000, 73.259, 36.0511
59.000000, 74.093, 11.4916
60.000000, 72.671, -10.3531
60.799999, 72.015, -24.1104
61.500000, 71.833, -35.4917
62.200001, 71.592, -43.0498
63.000000, 71.721, -45.3873
64.000000, 72.311, -45.8024
65.000000, 72.478, -43.8526
66.000000, 72.629, -40.0834
67.000000, 72.497, -38.1140
68.000000, 72.239, -35.3787
69.000000, 72.480, -36.1129
70.000000, 72.410, -41.7479
71.000000, 72.092, -44.1246
72.000000, 72.460, -43.3743
73.000000, 73.134, -41.7573
74.000000, 74.212, -39.0650
75.000000, 75.206, -40.6658
76.199997, 75.460, -43.6955
77.500000, 75.566, -45.1570
78.800003, 75.516, -47.3668
80.000000, 75.439, -48.3028
81.199997, 75.489, -47.5974
82.500000, 75.757, -47.0537
83.800003, 75.847, -47.3295
85.000000, 75.983, -47.3481
86.199997, 76.359, -49.2959
87.500000, 77.063, -53.0611
88.500000, 77.742, -58.7426
90.000000, 77.384, -65.6152
91.199997, 77.111, -58.6690
92.500000, 77.825, -53.8074
93.800003, 78.278, -53.1443
95.000000, 78.420, -53.4739
96.199997, 78.332, -53.7263
97.500000, 78.312, -53.2873
98.800003, 78.484, -53.4532
100.000000, 78.641, -54.0704
101.500000, 78.829, -54.1812
103.000000, 79.058, -54.4675
104.400002, 79.281, -55.4938
106.000000, 79.453, -57.3853
107.500000, 79.542, -58.6483
109.000000, 79.656, -58.4932
110.599998, 79.922, -58.3770
112.000000, 80.141, -59.1427
113.800003, 80.391, -60.4023
115.000000, 80.564, -60.6567
117.199997, 81.054, -58.5484
118.000000, 81.309, -57.1638
120.599998, 82.171, -58.0222
122.000000, 81.926, -61.4269
124.099998, 81.527, -64.7337
125.000000, 81.497, -66.1078
126.500000, 81.612, -67.4219
128.000000, 81.885, -67.6874
131.500000, 82.361, -67.2514
132.000000, 82.391, -67.3876
134.000000, 82.436, -68.7496
136.000000, 82.461, -70.4831
138.000000, 82.587, -71.1451
140.000000, 82.877, -71.2922
143.000000, 83.256, -72.0123
145.000000, 83.462, -72.8268
147.500000, 83.643, -73.6541
150.000000, 83.822, -74.3924
152.500000, 84.011, -75.3748
155.000000, 84.230, -76.2894
157.500000, 84.356, -77.0275
160.000000, 84.381, -77.3793
162.500000, 84.571, -77.5120
165.000000, 84.844, -79.3708
167.500000, 85.063, -80.9037
170.000000, 85.384, -82.2167
172.500000, 85.826, -84.4458
175.000000, 85.962, -86.3781
177.500000, 85.912, -85.0493
180.000000, 85.914, -84.1676
182.500000, 85.943, -85.0471
185.000000, 86.095, -87.0567
187.500000, 86.209, -88.8940
190.000000, 86.310, -89.1869
192.500000, 86.447, -89.6989
195.000000, 86.524, -90.7269
197.500000, 86.551, -91.5488
200.000000, 86.608, -92.0614
203.000000, 86.676, -93.4560
206.000000, 86.717, -94.5178
209.000000, 86.781, -95.3262
212.000000, 86.816, -96.3113
214.000000, 86.848, -97.0760
218.000000, 86.986, -98.2145
220.000000, 87.052, -98.7050
224.000000, 87.090, -99.6760
227.000000, 87.147, -100.3442
230.000000, 87.232, -101.0189
233.000000, 87.271, -101.7419
236.000000, 87.298, -102.0894
240.000000, 87.376, -102.3075
243.000000, 87.387, -102.5429
247.000000, 87.368, -102.9914
250.000000, 87.398, -103.2286
254.000000, 87.472, -103.5270
258.000000, 87.533, -103.5993
262.000000, 87.627, -103.9862
265.000000, 87.694, -104.5297
269.000000, 87.758, -104.9280
272.000000, 87.816, -105.2466
276.000000, 87.910, -105.8823
280.000000, 88.042, -106.4503
285.000000, 88.146, -106.9838
290.000000, 88.159, -107.4050
295.000000, 88.236, -107.7845
300.000000, 88.330, -108.6040
304.000000, 88.422, -109.4687
307.000000, 88.479, -109.8887
311.000000, 88.528, -110.0334
315.000000, 88.594, -110.1344
320.000000, 88.678, -110.5360
325.000000, 88.746, -111.1164
330.000000, 88.801, -111.4295
335.000000, 88.877, -111.5400
340.000000, 88.942, -112.0785
345.000000, 88.999, -112.7469
350.000000, 89.051, -113.2216
355.000000, 89.093, -113.5992
360.000000, 89.111, -114.1865
365.000000, 89.159, -114.3803
370.000000, 89.238, -114.5570
375.000000, 89.298, -114.9374
382.000000, 89.373, -115.2552
387.000000, 89.417, -115.8299
395.000000, 89.495, -116.5323
400.000000, 89.561, -116.5794
406.000000, 89.642, -116.5741
412.000000, 89.619, -117.2926
418.000000, 89.605, -117.9780
425.000000, 89.640, -118.2055
431.000000, 89.656, -118.4859
437.000000, 89.651, -118.6262
444.000000, 89.649, -118.2236
450.000000, 89.687, -117.9027
455.000000, 89.758, -117.8274
462.000000, 89.857, -118.2676
468.000000, 89.886, -118.5585
475.000000, 89.916, -119.0891
482.000000, 89.993, -119.6677
487.000000, 90.030, -119.9282
494.000000, 90.043, -120.1492
500.000000, 90.035, -120.3640
508.000000, 90.009, -120.7584
515.000000, 89.964, -121.1166
522.000000, 89.896, -121.3064
530.000000, 89.752, -121.0830
538.000000, 89.517, -119.9743
545.000000, 89.358, -117.4736
552.000000, 89.520, -113.9504
560.000000, 90.121, -111.7923
570.000000, 90.765, -113.1560
580.000000, 91.024, -115.3877
590.000000, 91.118, -116.9875
600.000000, 91.146, -117.9437
608.000000, 91.161, -118.4247
615.000000, 91.176, -118.7514
622.000000, 91.183, -119.0645
630.000000, 91.187, -119.3190
640.000000, 91.211, -119.3904
650.000000, 91.250, -119.5517
660.000000, 91.272, -119.7615
670.000000, 91.277, -119.9043
680.000000, 91.285, -119.9133
690.000000, 91.284, -119.7724
700.000000, 91.304, -119.6575
710.000000, 91.364, -119.7462
720.000000, 91.403, -119.8303
730.000000, 91.433, -119.8532
740.000000, 91.451, -119.7311
750.000000, 91.461, -119.4711
762.000000, 91.488, -119.4060
775.000000, 91.516, -119.3312
788.000000, 91.552, -119.1447
800.000000, 91.575, -118.9492
812.000000, 91.595, -118.7077
825.000000, 91.626, -118.3911
838.000000, 91.666, -118.1481
850.000000, 91.684, -117.9036
862.000000, 91.688, -117.5645
875.000000, 91.696, -117.1729
885.000000, 91.711, -116.8415
900.000000, 91.741, -116.4256
912.000000, 91.770, -116.0735
925.000000, 91.803, -115.5814
938.000000, 91.831, -115.0966
950.000000, 91.864, -114.6652
962.000000, 91.885, -114.2796
975.000000, 91.890, -113.8962
988.000000, 91.893, -113.5183
1000.000000, 91.902, -113.0201
1015.000000, 91.916, -112.2654
1030.000000, 91.923, -111.4463
1044.000000, 91.930, -110.6322
1060.000000, 91.974, -109.9912
1075.000000, 92.014, -109.2007
1090.000000, 92.033, -108.2531
1106.000000, 92.062, -107.2815
1120.000000, 92.114, -106.4495
1138.000000, 92.176, -105.3168
1150.000000, 92.218, -104.4620
1172.000000, 92.325, -102.8788
1180.000000, 92.363, -102.3588
1206.000000, 92.487, -100.5182
1220.000000, 92.572, -99.3563
1241.000000, 92.711, -97.5658
1250.000000, 92.777, -96.8184
1265.000000, 92.901, -95.6222
1280.000000, 93.035, -94.4075
1315.000000, 93.365, -91.6328
1320.000000, 93.414, -91.2497
1340.000000, 93.602, -89.7173
1360.000000, 93.766, -87.8749
1380.000000, 93.949, -85.9065
1400.000000, 94.167, -83.9127
1430.000000, 94.591, -81.0554
1450.000000, 94.907, -79.1524
1475.000000, 95.358, -76.7326
1500.000000, 95.850, -74.7751
1525.000000, 96.340, -73.2581
1550.000000, 96.830, -71.6618
1575.000000, 97.326, -70.1150
1600.000000, 97.843, -68.5515
1625.000000, 98.412, -67.1197
1650.000000, 99.018, -65.9246
1675.000000, 99.640, -64.9397
1700.000000, 100.296, -64.2314
1725.000000, 100.977, -64.0061
1750.000000, 101.661, -64.1882
1775.000000, 102.334, -64.6745
1800.000000, 102.998, -65.4749
1825.000000, 103.651, -66.5867
1850.000000, 104.285, -67.8936
1875.000000, 104.908, -69.4498
1900.000000, 105.517, -71.3964
1925.000000, 106.074, -73.6175
1950.000000, 106.599, -75.9027
1975.000000, 107.121, -78.3738
2000.000000, 107.619, -81.1669
2030.000000, 108.147, -84.8812
2060.000000, 108.576, -88.7439
2090.000000, 108.945, -92.4606
2120.000000, 109.284, -96.1721
2140.000000, 109.483, -98.7173
2180.000000, 109.817, -103.6807
2200.000000, 109.964, -106.1255
2240.000000, 110.210, -111.0781
2270.000000, 110.342, -114.7439
2300.000000, 110.440, -118.3114
2330.000000, 110.511, -121.8825
2360.000000, 110.536, -125.4193
2400.000000, 110.513, -129.9394
2430.000000, 110.459, -133.2166
2470.000000, 110.327, -137.3516
2500.000000, 110.194, -140.1936
2540.000000, 109.980, -143.6708
2580.000000, 109.716, -146.6554
2620.000000, 109.478, -148.8592
2650.000000, 109.363, -150.5111
2690.000000, 109.191, -152.9970
2720.000000, 109.025, -154.8212
2760.000000, 108.774, -156.9922
2800.000000, 108.510, -158.8516
2850.000000, 108.183, -160.7817
2900.000000, 107.865, -162.3660
2950.000000, 107.566, -163.6794
3000.000000, 107.283, -164.7894
3040.000000, 107.064, -165.5316
3070.000000, 106.903, -166.0239
3110.000000, 106.698, -166.5806
3150.000000, 106.505, -166.9989
3200.000000, 106.280, -167.4115
3250.000000, 106.069, -167.7186
3300.000000, 105.874, -167.8851
3350.000000, 105.697, -167.9755
3400.000000, 105.541, -167.9617
3450.000000, 105.406, -167.9316
3500.000000, 105.286, -167.8683
3550.000000, 105.179, -167.7502
3600.000000, 105.083, -167.5891
3650.000000, 105.007, -167.3464
3700.000000, 104.952, -167.0836
3750.000000, 104.909, -166.8426
3820.000000, 104.862, -166.4865
3870.000000, 104.844, -166.2054
3950.000000, 104.833, -165.8493
4000.000000, 104.836, -165.5608
4060.000000, 104.857, -165.2278
4120.000000, 104.912, -164.8492
4180.000000, 105.002, -164.6819
4250.000000, 105.100, -164.7060
4310.000000, 105.188, -164.6531
4370.000000, 105.294, -164.6483
4440.000000, 105.453, -164.8083
4500.000000, 105.606, -165.2193
4550.000000, 105.738, -165.7333
4620.000000, 105.917, -166.6647
4680.000000, 106.072, -167.6427
4750.000000, 106.247, -169.0787
4820.000000, 106.371, -170.7966
4870.000000, 106.434, -171.8994
4940.000000, 106.564, -173.1552
5000.000000, 106.730, -174.6926
5080.000000, 106.886, -177.4853
5150.000000, 106.951, -179.8612
5220.000000, 107.037, 177.8548
5300.000000, 107.178, 174.7711
5380.000000, 107.284, 170.7880
5450.000000, 107.260, 166.6776
5520.000000, 107.104, 162.4960
5600.000000, 106.797, 158.0219
5700.000000, 106.245, 152.8227
5800.000000, 105.500, 149.2014
5900.000000, 104.844, 147.3170
6000.000000, 104.309, 145.2968
6080.000000, 103.854, 143.8625
6150.000000, 103.480, 142.8213
6220.000000, 103.107, 141.5757
6300.000000, 102.608, 140.3671
6400.000000, 101.986, 140.0541
6500.000000, 101.492, 140.0418
6600.000000, 101.015, 140.0244
6700.000000, 100.639, 140.4444
6800.000000, 100.351, 140.0374
6900.000000, 100.013, 139.5081
7000.000000, 99.746, 139.1379
7100.000000, 99.417, 138.1317
7200.000000, 99.017, 138.3305
7300.000000, 98.792, 138.8989
7400.000000, 98.612, 138.6384
7500.000000, 98.433, 138.4273
7620.000000, 98.300, 137.5930
7750.000000, 98.147, 136.0345
7880.000000, 97.924, 133.7479
8000.000000, 97.562, 130.9389
8120.000000, 97.060, 127.9840
8250.000000, 96.348, 125.0078
8380.000000, 95.514, 122.8289
8500.000000, 94.678, 121.5592
8620.000000, 93.828, 121.1360
8750.000000, 92.912, 121.1478
8850.000000, 92.197, 121.6767
9000.000000, 91.191, 123.3079
9120.000000, 90.451, 125.0507
9250.000000, 89.727, 127.5579
9380.000000, 89.192, 130.8965
9500.000000, 89.016, 133.4971
9620.000000, 89.043, 133.6489
9750.000000, 88.989, 130.7103
9880.000000, 88.606, 125.4322
10000.000000, 87.810, 120.0669
10150.000000, 86.278, 115.1907
10300.000000, 84.430, 113.7869
10440.000000, 82.705, 115.4630
10600.000000, 80.979, 120.1101
10750.000000, 79.885, 124.9962
10900.000000, 79.309, 125.9912
11060.000000, 78.898, 118.7908
11200.000000, 78.062, 103.4085
11380.000000, 75.940, 71.2537
11500.000000, 75.005, 40.1344
11720.000000, 77.506, -16.9532
11800.000000, 79.044, -31.3381
12060.000000, 83.227, -67.1749
12200.000000, 84.586, -83.8903
12410.000000, 85.496, -107.0654
12500.000000, 85.471, -116.1227
12650.000000, 84.948, -129.0026
12800.000000, 84.037, -138.2185
13150.000000, 81.910, -149.0520
13200.000000, 81.673, -150.0823
13400.000000, 80.829, -155.1612
13600.000000, 79.799, -161.9283
13800.000000, 78.327, -168.8453
14000.000000, 76.396, -175.0320
14300.000000, 72.183, -179.8201
14500.000000, 68.706, -161.2059
14750.000000, 67.786, -121.7844
15000.000000, 68.684, -114.1101
15250.000000, 68.689, -111.2906
15500.000000, 68.367, -105.1834
15750.000000, 68.310, -97.6321
16000.000000, 68.462, -91.1420
16250.000000, 68.730, -85.7435
16500.000000, 69.031, -82.7674
16750.000000, 69.060, -82.5861
17000.000000, 68.546, -83.0161
17250.000000, 67.589, -80.5559
17500.000000, 66.617, -73.6055
17750.000000, 66.038, -64.0480
18000.000000, 65.827, -55.2889
18250.000000, 65.794, -47.5873
18500.000000, 65.946, -40.8120
18750.000000, 66.253, -36.9030
19000.000000, 66.400, -37.4543
19250.000000, 65.968, -41.8915
19500.000000, 64.649, -47.6208
19750.000000, 62.498, -51.7522
20000.000000, 59.681, -53.5053
20300.000000, 55.434, -54.8775
20600.000000, 49.887, -58.3377
20900.000000, 44.371, -97.0199
21200.000000, 44.594, 125.4096
21400.000000, 45.799, 127.7650
21800.000000, 46.463, 129.7684
22000.000000, 45.658, 129.1963
22400.000000, 42.450, 127.2334
22700.000000, 40.614, 117.2351
23000.000000, 39.937, 65.3499
23300.000000, 39.640, -58.8708
23600.000000, 39.181, -111.2242
24000.000000, 38.257, -1.5399
