* Measurement data measured by REW V5.31
* Source: Headset (DS by VECLAN.COM), MICROPHONE (Master Volume), L, volume: 0.720. Timing signal peak level -17.1 dBFS, measurement signal peak level -13.1 dBFS
* Format: 4M Log Swept Sine, 1 sweep at -12.0 dBFS using an acoustic timing reference
* Dated: Apr 20, 2024 10:33:12 PM
* REW Settings:
*  C-weighting compensation: Off
*  Target level: 75.0 dB
* Note: ; Delay -0.1681 ms (-58 mm, -2.27 in) using estimated IR delay relative to Acoustic reference played from HEADPHONE L with no timing offset
* Measurement: Samsung Earbuds L3
* Smoothing: 1/24 octave
* Frequency Step: 1/48 octave
* Start Frequency: 1.000 Hz
*
* Freq(Hz), SPL(dB), Phase(degrees)
1.000000, 65.148, 23.7626
1.015000, 65.205, 23.4165
1.030000, 65.258, 23.0855
1.044000, 65.304, 22.7905
1.060000, 65.352, 22.4702
1.075000, 65.394, 22.1860
1.090000, 65.433, 21.9154
1.106000, 65.472, 21.6294
1.120000, 65.505, 21.3604
1.138000, 65.549, 20.9765
1.150000, 65.579, 20.6975
1.172000, 65.632, 20.1379
1.180000, 65.651, 19.9161
1.206000, 65.707, 19.1606
1.220000, 65.734, 18.7362
1.241000, 65.768, 18.0842
1.250000, 65.780, 17.8012
1.265000, 65.797, 17.3277
1.280000, 65.807, 16.8550
1.315000, 65.805, 15.7760
1.320000, 65.802, 15.6266
1.340000, 65.778, 15.0468
1.360000, 65.739, 14.5034
1.380000, 65.682, 13.9665
1.400000, 65.605, 13.4692
1.430000, 65.451, 12.8454
1.450000, 65.319, 12.5226
1.475000, 65.118, 12.2098
1.500000, 64.875, 11.9288
1.525000, 64.592, 11.6450
1.550000, 64.272, 11.3597
1.575000, 63.920, 11.0589
1.600000, 63.540, 10.7342
1.625000, 63.137, 10.4359
1.650000, 62.716, 10.1769
1.675000, 62.280, 9.9726
1.700000, 61.835, 9.8411
1.725000, 61.384, 9.8031
1.750000, 60.932, 9.8825
1.775000, 60.485, 10.0893
1.800000, 60.044, 10.4369
1.825000, 59.612, 10.9865
1.850000, 59.170, 11.7434
1.875000, 58.695, 12.6968
1.900000, 58.184, 13.8527
1.925000, 57.647, 15.2297
1.950000, 57.093, 16.8521
1.975000, 56.534, 18.7292
2.000000, 55.979, 20.8724
2.030000, 55.337, 23.8763
2.060000, 54.736, 27.3801
2.090000, 54.198, 31.3901
2.120000, 53.740, 35.8675
2.140000, 53.490, 39.0667
2.180000, 53.147, 45.7630
2.200000, 53.063, 49.1785
2.240000, 53.079, 56.1807
2.270000, 53.234, 61.4726
2.300000, 53.493, 66.5751
2.330000, 53.835, 71.3088
2.360000, 54.243, 75.5554
2.400000, 54.854, 80.3192
2.430000, 55.338, 83.2417
2.470000, 55.984, 86.3270
2.500000, 56.444, 88.0812
2.540000, 56.995, 89.7544
2.580000, 57.472, 90.7788
2.620000, 57.924, 91.3435
2.650000, 58.262, 91.5753
2.690000, 58.713, 91.6841
2.720000, 59.046, 91.6422
2.760000, 59.479, 91.4526
2.800000, 59.894, 91.0904
2.850000, 60.375, 90.4662
2.900000, 60.805, 89.6632
2.950000, 61.176, 88.6517
3.000000, 61.493, 87.3661
3.040000, 61.713, 86.1937
3.070000, 61.861, 85.2689
3.110000, 62.036, 84.0075
3.150000, 62.189, 82.7411
3.200000, 62.354, 81.1527
3.250000, 62.494, 79.5968
3.300000, 62.613, 78.0641
3.350000, 62.707, 76.4425
3.400000, 62.773, 74.6440
3.450000, 62.811, 72.7434
3.500000, 62.823, 70.8259
3.550000, 62.809, 68.9553
3.600000, 62.773, 67.1563
3.650000, 62.714, 65.4642
3.700000, 62.633, 63.8146
3.750000, 62.529, 62.0930
3.820000, 62.343, 59.5268
3.870000, 62.182, 57.6717
3.950000, 61.874, 54.8557
4.000000, 61.650, 53.2629
4.060000, 61.349, 51.5373
4.120000, 61.011, 49.8826
4.180000, 60.638, 48.2379
4.250000, 60.160, 46.3736
4.310000, 59.714, 44.9589
4.370000, 59.235, 43.8332
4.440000, 58.618, 42.9603
4.500000, 58.025, 42.5978
4.550000, 57.499, 42.5587
4.620000, 56.750, 42.9058
4.680000, 56.133, 43.6456
4.750000, 55.483, 45.1429
4.820000, 54.898, 47.5438
4.870000, 54.501, 49.9427
4.940000, 53.991, 54.1511
5.000000, 53.631, 58.2488
5.080000, 53.328, 63.7672
5.150000, 53.287, 68.1784
5.220000, 53.477, 72.1586
5.300000, 53.909, 76.0323
5.380000, 54.450, 78.8332
5.450000, 54.922, 80.2273
5.520000, 55.353, 80.6655
5.600000, 55.830, 80.2166
5.700000, 56.417, 78.6769
5.800000, 56.945, 76.3970
5.900000, 57.365, 73.4011
6.000000, 57.685, 69.6087
6.080000, 57.881, 66.2065
6.150000, 58.016, 63.1479
6.220000, 58.119, 60.0335
6.300000, 58.196, 56.2852
6.400000, 58.231, 51.1922
6.500000, 58.207, 45.9286
6.600000, 58.136, 40.7800
6.700000, 58.017, 35.5487
6.800000, 57.850, 30.1100
6.900000, 57.644, 24.7306
7.000000, 57.403, 19.6203
7.100000, 57.127, 14.5851
7.200000, 56.819, 9.5997
7.300000, 56.484, 4.8928
7.400000, 56.124, 0.6132
7.500000, 55.738, -3.3510
7.620000, 55.258, -7.6628
7.750000, 54.733, -11.4770
7.880000, 54.203, -14.2641
8.000000, 53.750, -16.0296
8.120000, 53.371, -16.9866
8.250000, 53.047, -16.9835
8.380000, 52.845, -16.2604
8.500000, 52.803, -15.2626
8.620000, 52.893, -13.9967
8.750000, 53.101, -12.6940
8.850000, 53.324, -11.9423
9.000000, 53.753, -11.2057
9.120000, 54.132, -11.0259
9.250000, 54.544, -11.2873
9.380000, 54.955, -11.9428
9.500000, 55.313, -12.8659
9.620000, 55.642, -14.0772
9.750000, 55.961, -15.6659
9.880000, 56.222, -17.4943
10.000000, 56.405, -19.3952
10.150000, 56.549, -22.0361
10.300000, 56.584, -24.8041
10.440000, 56.513, -27.5323
10.600000, 56.289, -30.5839
10.750000, 55.926, -33.2314
10.900000, 55.405, -35.5382
11.060000, 54.643, -37.0788
11.200000, 53.808, -37.3553
11.380000, 52.622, -35.2299
11.500000, 51.805, -31.5379
11.720000, 50.796, -19.9573
11.800000, 50.784, -14.7816
12.060000, 51.844, -0.6344
12.200000, 52.799, 2.8037
12.410000, 54.316, 3.2035
12.500000, 54.861, 1.9719
12.650000, 55.590, -1.4429
12.800000, 56.093, -5.9262
13.150000, 56.341, -19.3088
13.200000, 56.268, -21.3702
13.400000, 55.686, -29.9179
13.600000, 54.557, -38.1607
13.800000, 52.753, -45.2615
14.000000, 49.841, -48.5899
14.300000, 45.193, -19.5212
14.500000, 46.905, 28.1092
14.750000, 51.003, 39.2206
15.000000, 54.325, 32.4443
15.250000, 56.425, 21.3980
15.500000, 57.668, 9.3728
15.750000, 58.305, -2.5742
16.000000, 58.448, -13.5235
16.250000, 58.188, -22.6298
16.500000, 57.660, -29.0007
16.750000, 57.115, -31.7465
17.000000, 56.966, -31.3155
17.250000, 57.440, -29.9263
17.500000, 58.425, -30.3190
17.750000, 59.513, -33.6165
18.000000, 60.421, -39.2812
18.250000, 60.996, -46.4315
18.500000, 61.185, -54.0680
18.750000, 60.970, -61.3429
19.000000, 60.355, -67.3862
19.250000, 59.383, -71.0666
19.500000, 58.220, -71.1303
19.750000, 57.207, -66.7022
20.000000, 56.822, -59.0550
20.299999, 57.278, -50.7935
20.600000, 58.134, -47.0211
20.900000, 58.755, -46.6692
21.200001, 58.954, -47.1786
21.400000, 58.901, -46.8762
21.799999, 58.749, -43.1994
22.000000, 58.865, -40.1159
22.400000, 59.686, -34.7634
22.700001, 60.542, -33.6237
23.000000, 61.266, -35.0544
23.299999, 61.684, -38.0860
23.600000, 61.742, -41.5611
24.000000, 61.300, -45.0692
24.299999, 60.691, -45.7067
24.700001, 59.816, -42.6993
25.000000, 59.384, -37.7038
25.400000, 59.374, -29.5790
25.799999, 59.915, -22.6895
26.200001, 60.696, -18.3478
26.500000, 61.296, -16.5683
26.900000, 62.032, -15.5735
27.200001, 62.518, -15.5482
27.600000, 63.080, -16.1984
28.000000, 63.540, -17.5254
28.500000, 63.920, -20.0084
29.000000, 63.973, -22.5790
29.500000, 63.712, -23.3019
30.000000, 63.566, -20.5512
30.400000, 63.961, -17.3800
30.700001, 64.562, -16.3925
31.100000, 65.445, -18.2316
31.500000, 66.041, -23.1016
32.000000, 66.063, -30.5508
32.500000, 65.312, -35.3704
33.000000, 64.445, -33.8126
33.500000, 64.551, -28.5614
34.000000, 65.430, -27.4667
34.500000, 65.967, -31.1901
35.000000, 65.730, -34.7109
35.500000, 65.183, -33.1170
36.000000, 65.399, -26.9819
36.500000, 66.520, -23.9306
37.000000, 67.553, -26.8092
37.500000, 67.915, -32.2765
38.200001, 67.463, -37.3405
38.700001, 67.113, -37.0705
39.500000, 67.358, -35.9498
40.000000, 67.542, -37.6576
40.599998, 67.341, -39.4446
41.200001, 67.098, -37.1126
41.799999, 67.647, -32.2703
42.500000, 68.991, -31.3126
43.099998, 69.797, -34.4596
43.700001, 70.061, -37.1885
44.400002, 70.201, -36.7338
45.000000, 70.590, -35.0847
45.500000, 70.945, -34.8242
46.200001, 71.020, -35.2050
46.799999, 70.768, -33.2929
47.500000, 70.801, -28.6111
48.200001, 71.228, -27.0300
48.700001, 71.329, -28.4800
49.400002, 71.017, -30.9610
50.000000, 70.725, -32.0724
50.799999, 70.746, -34.8674
51.500000, 70.795, -39.0899
52.200001, 70.872, -41.9136
53.000000, 71.450, -42.3982
53.799999, 72.494, -41.5830
54.500000, 73.549, -41.2210
55.200001, 74.325, -41.0586
56.000000, 75.027, -36.2908
57.000000, 77.094, -29.9961
58.000000, 78.265, -37.8870
59.000000, 76.896, -42.3112
60.000000, 75.866, -33.5949
60.799999, 75.764, -32.0888
61.500000, 75.228, -31.9367
62.200001, 74.917, -29.8077
63.000000, 75.143, -30.0875
64.000000, 75.199, -34.1467
65.000000, 75.322, -36.1459
66.000000, 75.714, -37.9843
67.000000, 75.927, -39.3963
68.000000, 76.109, -38.9248
69.000000, 76.496, -39.7080
70.000000, 76.441, -43.9995
71.000000, 75.688, -45.6918
72.000000, 75.434, -42.4937
73.000000, 76.094, -41.1145
74.000000, 76.946, -43.6795
75.000000, 77.366, -47.4574
76.199997, 77.491, -47.4055
77.500000, 78.021, -44.2646
78.800003, 78.654, -42.5714
80.000000, 79.077, -43.4274
81.199997, 79.126, -45.0296
82.500000, 79.165, -45.4069
83.800003, 79.454, -45.7148
85.000000, 79.813, -46.1756
86.199997, 80.145, -46.0139
87.500000, 80.507, -44.4086
88.500000, 80.948, -42.1681
90.000000, 81.778, -43.0378
91.199997, 81.779, -46.2669
92.500000, 81.567, -47.5777
93.800003, 81.500, -48.6438
95.000000, 81.533, -49.5392
96.199997, 81.645, -50.2192
97.500000, 81.795, -50.4650
98.800003, 82.015, -49.8665
100.000000, 82.309, -49.7285
101.500000, 82.605, -50.5752
103.000000, 82.827, -51.8833
104.400002, 82.967, -52.8114
106.000000, 83.170, -52.8957
107.500000, 83.365, -52.6801
109.000000, 83.552, -52.6033
110.599998, 83.696, -53.6375
112.000000, 83.784, -55.1882
113.800003, 83.954, -56.6886
115.000000, 84.158, -56.9852
117.199997, 84.564, -55.5002
118.000000, 84.735, -54.2757
120.599998, 85.499, -54.2086
122.000000, 85.436, -57.6691
124.099998, 85.248, -60.8531
125.000000, 85.296, -61.7351
126.500000, 85.474, -62.5931
128.000000, 85.688, -62.6441
131.500000, 86.033, -62.7964
132.000000, 86.062, -62.9800
134.000000, 86.205, -63.8116
136.000000, 86.474, -64.5395
138.000000, 86.731, -65.6191
140.000000, 86.823, -66.4073
143.000000, 86.980, -67.3140
145.000000, 87.161, -68.2904
147.500000, 87.386, -69.2163
150.000000, 87.566, -69.8690
152.500000, 87.712, -70.6693
155.000000, 87.921, -71.6333
157.500000, 88.138, -72.5428
160.000000, 88.314, -72.6535
162.500000, 88.500, -73.1596
165.000000, 88.616, -74.4807
167.500000, 88.744, -75.8809
170.000000, 88.801, -76.8472
172.500000, 88.861, -76.7401
175.000000, 89.093, -77.0360
177.500000, 89.318, -78.5408
180.000000, 89.413, -79.6483
182.500000, 89.449, -80.5472
185.000000, 89.493, -81.5624
187.500000, 89.632, -82.3731
190.000000, 89.832, -83.0620
192.500000, 89.975, -83.7681
195.000000, 90.056, -84.3008
197.500000, 90.143, -84.9434
200.000000, 90.228, -85.8470
203.000000, 90.325, -86.9115
206.000000, 90.420, -87.7188
209.000000, 90.500, -88.4248
212.000000, 90.564, -89.1565
214.000000, 90.600, -89.5887
218.000000, 90.695, -90.2731
220.000000, 90.761, -90.6874
224.000000, 90.882, -91.7580
227.000000, 90.956, -92.5009
230.000000, 91.021, -93.2038
233.000000, 91.068, -94.0499
236.000000, 91.130, -94.7588
240.000000, 91.234, -95.3486
243.000000, 91.203, -95.7067
247.000000, 91.156, -96.2849
250.000000, 91.194, -96.8210
254.000000, 91.238, -97.1949
258.000000, 91.241, -97.5620
262.000000, 91.270, -98.0385
265.000000, 91.307, -98.2633
269.000000, 91.387, -98.5064
272.000000, 91.439, -98.7227
276.000000, 91.484, -98.9023
280.000000, 91.544, -98.9891
285.000000, 91.618, -99.1031
290.000000, 91.684, -99.6782
295.000000, 91.768, -99.9378
300.000000, 91.850, -100.0520
304.000000, 91.891, -100.3006
307.000000, 91.918, -100.5155
311.000000, 91.962, -100.7221
315.000000, 92.005, -100.9278
320.000000, 92.069, -101.2115
325.000000, 92.147, -101.4345
330.000000, 92.204, -101.5849
335.000000, 92.256, -101.6483
340.000000, 92.327, -101.8496
345.000000, 92.384, -102.0651
350.000000, 92.445, -102.2585
355.000000, 92.512, -102.5909
360.000000, 92.566, -102.9292
365.000000, 92.602, -102.9561
370.000000, 92.647, -102.9589
375.000000, 92.694, -102.9739
382.000000, 92.770, -103.1409
387.000000, 92.822, -103.1840
395.000000, 92.917, -103.3720
400.000000, 92.975, -103.6141
406.000000, 93.020, -103.9237
412.000000, 93.031, -104.0701
418.000000, 93.070, -104.4379
425.000000, 93.148, -104.9648
431.000000, 93.168, -105.7522
437.000000, 93.090, -106.8119
444.000000, 92.807, -107.4999
450.000000, 92.532, -106.3533
455.000000, 92.465, -104.5507
462.000000, 92.598, -102.6906
468.000000, 92.764, -102.0041
475.000000, 92.910, -101.7060
482.000000, 93.023, -101.5201
487.000000, 93.091, -101.4648
494.000000, 93.148, -101.3484
500.000000, 93.189, -101.2014
508.000000, 93.246, -101.0033
515.000000, 93.295, -100.8967
522.000000, 93.335, -100.7300
530.000000, 93.369, -100.4806
538.000000, 93.420, -100.1812
545.000000, 93.476, -99.9044
552.000000, 93.527, -99.6219
560.000000, 93.568, -99.3846
570.000000, 93.620, -99.0321
580.000000, 93.669, -98.5317
590.000000, 93.704, -98.2117
600.000000, 93.767, -97.7943
608.000000, 93.818, -97.4751
615.000000, 93.850, -97.2206
622.000000, 93.875, -96.9587
630.000000, 93.904, -96.5989
640.000000, 93.939, -96.0851
650.000000, 93.970, -95.6103
660.000000, 93.997, -95.1771
670.000000, 94.038, -94.7990
680.000000, 94.069, -94.3524
690.000000, 94.102, -93.7116
700.000000, 94.133, -93.0438
710.000000, 94.162, -92.5057
720.000000, 94.192, -92.0464
730.000000, 94.224, -91.5316
740.000000, 94.250, -90.8142
750.000000, 94.268, -90.0273
762.000000, 94.291, -89.4833
775.000000, 94.329, -88.8294
788.000000, 94.376, -88.0064
800.000000, 94.395, -87.4139
812.000000, 94.400, -86.7470
825.000000, 94.419, -85.8776
838.000000, 94.452, -85.0172
850.000000, 94.477, -84.2236
862.000000, 94.496, -83.3847
875.000000, 94.501, -82.3939
885.000000, 94.516, -81.6907
900.000000, 94.558, -80.6316
912.000000, 94.580, -79.7588
925.000000, 94.593, -78.8876
938.000000, 94.604, -77.8813
950.000000, 94.606, -76.8856
962.000000, 94.613, -75.8985
975.000000, 94.624, -74.8365
988.000000, 94.628, -73.7889
1000.000000, 94.640, -72.8350
1015.000000, 94.658, -71.4890
1030.000000, 94.664, -70.1277
1044.000000, 94.669, -68.8302
1060.000000, 94.677, -67.3209
1075.000000, 94.698, -65.8316
1090.000000, 94.736, -64.2981
1106.000000, 94.787, -62.6163
1120.000000, 94.828, -61.1480
1138.000000, 94.870, -59.2805
1150.000000, 94.900, -57.9817
1172.000000, 94.984, -55.5749
1180.000000, 95.025, -54.6946
1206.000000, 95.162, -51.7208
1220.000000, 95.235, -50.0516
1241.000000, 95.349, -47.6238
1250.000000, 95.403, -46.5117
1265.000000, 95.508, -44.6049
1280.000000, 95.621, -42.7236
1315.000000, 95.889, -38.3788
1320.000000, 95.928, -37.7371
1340.000000, 96.095, -35.0743
1360.000000, 96.286, -32.3434
1380.000000, 96.480, -29.7386
1400.000000, 96.682, -27.1596
1430.000000, 97.037, -23.1874
1450.000000, 97.306, -20.6019
1475.000000, 97.674, -17.2771
1500.000000, 98.080, -13.9668
1525.000000, 98.517, -10.7747
1550.000000, 98.993, -7.7595
1575.000000, 99.483, -5.0924
1600.000000, 99.983, -2.4243
1625.000000, 100.534, 0.2183
1650.000000, 101.111, 2.5159
1675.000000, 101.724, 4.5301
1700.000000, 102.363, 6.2030
1725.000000, 102.997, 7.5737
1750.000000, 103.630, 8.6870
1775.000000, 104.270, 9.4616
1800.000000, 104.903, 9.8984
1825.000000, 105.536, 10.0527
1850.000000, 106.163, 9.8113
1875.000000, 106.754, 9.1737
1900.000000, 107.309, 8.3361
1925.000000, 107.842, 7.3386
1950.000000, 108.342, 6.1084
1975.000000, 108.805, 4.7134
2000.000000, 109.235, 3.1289
2030.000000, 109.691, 1.0682
2060.000000, 110.097, -1.0638
2090.000000, 110.454, -3.2868
2120.000000, 110.753, -5.5890
2140.000000, 110.926, -7.1449
2180.000000, 111.212, -10.1155
2200.000000, 111.329, -11.5822
2240.000000, 111.513, -14.4688
2270.000000, 111.612, -16.5640
2300.000000, 111.673, -18.6515
2330.000000, 111.695, -20.6643
2360.000000, 111.684, -22.5659
2400.000000, 111.610, -24.9461
2430.000000, 111.521, -26.5119
2470.000000, 111.367, -28.3812
2500.000000, 111.223, -29.5941
2540.000000, 111.005, -30.9654
2580.000000, 110.759, -32.0178
2620.000000, 110.493, -32.8094
2650.000000, 110.278, -33.2163
2690.000000, 109.981, -33.4038
2720.000000, 109.758, -33.3161
2760.000000, 109.476, -32.9531
2800.000000, 109.202, -32.4729
2850.000000, 108.857, -31.6338
2900.000000, 108.521, -30.4819
2950.000000, 108.202, -29.0679
3000.000000, 107.897, -27.4580
3040.000000, 107.662, -26.0176
3070.000000, 107.492, -24.8619
3110.000000, 107.278, -23.2192
3150.000000, 107.077, -21.4657
3200.000000, 106.844, -19.1960
3250.000000, 106.629, -16.8453
3300.000000, 106.431, -14.3536
3350.000000, 106.249, -11.8110
3400.000000, 106.086, -9.1881
3450.000000, 105.947, -6.5172
3500.000000, 105.831, -3.8575
3550.000000, 105.725, -1.1786
3600.000000, 105.624, 1.4949
3650.000000, 105.529, 4.2672
3700.000000, 105.446, 7.1481
3750.000000, 105.388, 10.0773
3820.000000, 105.336, 14.1804
3870.000000, 105.321, 17.1130
3950.000000, 105.327, 21.6283
4000.000000, 105.340, 24.4106
4060.000000, 105.374, 27.6425
4120.000000, 105.408, 30.7612
4180.000000, 105.433, 33.9088
4250.000000, 105.487, 37.6897
4310.000000, 105.561, 40.8445
4370.000000, 105.632, 43.8779
4440.000000, 105.726, 47.4236
4500.000000, 105.818, 50.3660
4550.000000, 105.905, 52.8359
4620.000000, 106.066, 56.2204
4680.000000, 106.242, 58.9118
4750.000000, 106.472, 61.7054
4820.000000, 106.726, 64.0749
4870.000000, 106.909, 65.3851
4940.000000, 107.132, 66.6600
5000.000000, 107.249, 67.2681
5080.000000, 107.245, 67.8780
5150.000000, 107.083, 68.8851
5220.000000, 106.863, 71.1940
5300.000000, 106.804, 75.1945
5380.000000, 107.051, 78.5855
5450.000000, 107.332, 79.8964
5520.000000, 107.497, 80.0412
5600.000000, 107.485, 79.8677
5700.000000, 107.284, 80.1283
5800.000000, 106.970, 80.7845
5900.000000, 106.547, 82.0271
6000.000000, 106.074, 83.9240
6080.000000, 105.683, 85.8451
6150.000000, 105.325, 87.7942
6220.000000, 104.964, 90.0300
6300.000000, 104.563, 92.8987
6400.000000, 104.064, 96.8785
6500.000000, 103.592, 101.4938
6600.000000, 103.199, 106.6616
6700.000000, 102.919, 112.0044
6800.000000, 102.737, 117.2282
6900.000000, 102.652, 122.2544
7000.000000, 102.660, 126.9250
7100.000000, 102.722, 131.0789
7200.000000, 102.803, 134.6217
7300.000000, 102.849, 137.6273
7400.000000, 102.827, 140.7132
7500.000000, 102.954, 144.3182
7620.000000, 103.330, 146.3815
7750.000000, 103.547, 145.6695
7880.000000, 103.300, 143.5930
8000.000000, 102.657, 141.6510
8120.000000, 101.682, 140.6932
8250.000000, 100.400, 141.3983
8380.000000, 99.028, 143.9781
8500.000000, 97.761, 147.7697
8620.000000, 96.544, 152.6771
8750.000000, 95.306, 158.7540
8850.000000, 94.419, 163.7804
9000.000000, 93.181, 171.4198
9120.000000, 92.251, 177.4607
9250.000000, 91.270, -176.3156
9380.000000, 90.274, -170.3434
9500.000000, 89.303, -165.1705
9620.000000, 88.222, -160.1230
9750.000000, 86.891, -154.4073
9880.000000, 85.379, -148.0153
10000.000000, 83.816, -140.8144
10150.000000, 81.705, -128.9057
10300.000000, 79.672, -112.4133
10440.000000, 78.284, -93.4732
10600.000000, 77.558, -72.4590
10750.000000, 77.401, -55.9354
10900.000000, 77.488, -42.8066
11060.000000, 77.591, -32.9821
11200.000000, 77.474, -27.8495
11380.000000, 76.775, -25.6149
11500.000000, 75.972, -27.3514
11720.000000, 74.238, -48.5368
11800.000000, 73.951, -71.3345
12060.000000, 77.082, -166.1570
12200.000000, 79.555, 174.8625
12410.000000, 82.371, 159.1264
12500.000000, 83.225, 153.8947
12650.000000, 84.198, 145.9518
12800.000000, 84.630, 138.6201
13150.000000, 83.627, 125.2465
13200.000000, 83.278, 124.2123
13400.000000, 81.670, 123.1737
13600.000000, 80.230, 124.5839
13800.000000, 78.904, 123.9989
14000.000000, 77.000, 121.1462
14300.000000, 72.291, 121.0952
14500.000000, 68.223, 127.4069
14750.000000, 62.339, 145.0811
15000.000000, 56.136, -169.4708
15250.000000, 55.156, -75.9691
15500.000000, 58.728, -49.6360
15750.000000, 60.333, -49.9959
16000.000000, 58.896, -59.7815
16250.000000, 57.393, 99.5419
16500.000000, 60.291, 97.2897
16750.000000, 62.310, 95.2352
17000.000000, 63.005, 100.8990
17250.000000, 63.133, 111.7642
17500.000000, 62.819, 126.3708
17750.000000, 62.287, 147.2802
18000.000000, 62.480, 177.2274
18250.000000, 64.468, -149.6020
18500.000000, 67.587, -126.6461
18750.000000, 70.370, -116.0149
19000.000000, 72.165, -111.9189
19250.000000, 72.991, -109.5043
19500.000000, 73.168, -106.8651
19750.000000, 72.948, -105.0491
20000.000000, 72.047, -106.2365
20300.000000, 69.080, -108.7255
20600.000000, 63.861, -101.7013
20900.000000, 57.463, -85.7899
21200.000000, 52.389, -93.6299
21400.000000, 52.681, 134.7369
21800.000000, 54.780, 142.7780
22000.000000, 54.165, 150.0491
22400.000000, 49.348, 163.5817
22700.000000, 44.192, 170.9155
23000.000000, 40.524, 169.5964
23300.000000, 39.442, -146.2864
23600.000000, 39.160, 28.0189
24000.000000, 38.613, -170.3813
