* Measurement data measured by REW V5.31
* Source: Headset (DS by VECLAN.COM), MICROPHONE (Master Volume), L, volume: 0.720. Timing signal peak level -16.1 dBFS, measurement signal peak level -12.5 dBFS
* Format: 4M Log Swept Sine, 1 sweep at -12.0 dBFS using an acoustic timing reference
* Dated: Apr 20, 2024 10:33:52 PM
* REW Settings:
*  C-weighting compensation: Off
*  Target level: 75.0 dB
* Note: ; Delay -0.0920 ms (-32 mm, -1.24 in) using estimated IR delay relative to Acoustic reference played from HEADPHONE L with no timing offset
* Measurement: Samsung Earbuds L4
* Smoothing: 1/24 octave
* Frequency Step: 1/48 octave
* Start Frequency: 1.000 Hz
*
* Freq(Hz), SPL(dB), Phase(degrees)
1.000000, 49.569, 154.7832
1.015000, 49.303, 153.3836
1.030000, 49.058, 151.9253
1.044000, 48.850, 150.5088
1.060000, 48.640, 148.8201
1.075000, 48.472, 147.1623
1.090000, 48.334, 145.4166
1.106000, 48.219, 143.3969
1.120000, 48.140, 141.3883
1.138000, 48.063, 138.3341
1.150000, 48.025, 135.9362
1.172000, 47.984, 130.5857
1.180000, 47.978, 128.2694
1.206000, 47.988, 119.0566
1.220000, 48.011, 112.8445
1.241000, 48.069, 101.7052
1.250000, 48.101, 96.2987
1.265000, 48.165, 86.6517
1.280000, 48.240, 76.6282
1.315000, 48.458, 54.7661
1.320000, 48.494, 52.0365
1.340000, 48.646, 42.3119
1.360000, 48.813, 34.3864
1.380000, 48.993, 27.9156
1.400000, 49.184, 22.5871
1.430000, 49.490, 16.1555
1.450000, 49.704, 12.6047
1.475000, 49.992, 8.7435
1.500000, 50.325, 5.3882
1.525000, 50.708, 2.4700
1.550000, 51.135, -0.0710
1.575000, 51.596, -2.3148
1.600000, 52.084, -4.3319
1.625000, 52.590, -6.1304
1.650000, 53.105, -7.7511
1.675000, 53.620, -9.2289
1.700000, 54.128, -10.5939
1.725000, 54.620, -11.8717
1.750000, 55.086, -13.0847
1.775000, 55.520, -14.2695
1.800000, 55.912, -15.4601
1.825000, 56.258, -16.6402
1.850000, 56.560, -17.8291
1.875000, 56.830, -19.0318
1.900000, 57.075, -20.2356
1.925000, 57.295, -21.4257
1.950000, 57.495, -22.5903
1.975000, 57.676, -23.7384
2.000000, 57.841, -24.8812
2.030000, 58.019, -26.1978
2.060000, 58.181, -27.4558
2.090000, 58.331, -28.6578
2.120000, 58.472, -29.8084
2.140000, 58.563, -30.5503
2.180000, 58.742, -32.0090
2.200000, 58.831, -32.7491
2.240000, 58.998, -34.2715
2.270000, 59.109, -35.4607
2.300000, 59.208, -36.6722
2.330000, 59.297, -37.8865
2.360000, 59.374, -39.0878
2.400000, 59.463, -40.6940
2.430000, 59.519, -41.8593
2.470000, 59.583, -43.3372
2.500000, 59.622, -44.3825
2.540000, 59.665, -45.6912
2.580000, 59.698, -46.9599
2.620000, 59.719, -48.3001
2.650000, 59.725, -49.3423
2.690000, 59.721, -50.7596
2.720000, 59.710, -51.8241
2.760000, 59.683, -53.2162
2.800000, 59.644, -54.5900
2.850000, 59.578, -56.1866
2.900000, 59.494, -57.5995
2.950000, 59.390, -58.8466
3.000000, 59.266, -60.0932
3.040000, 59.151, -61.1118
3.070000, 59.057, -61.8707
3.110000, 58.922, -62.8552
3.150000, 58.776, -63.7828
3.200000, 58.580, -64.8457
3.250000, 58.373, -65.7230
3.300000, 58.152, -66.3569
3.350000, 57.909, -66.7862
3.400000, 57.642, -67.1048
3.450000, 57.358, -67.2979
3.500000, 57.067, -67.3342
3.550000, 56.781, -67.1869
3.600000, 56.509, -66.8508
3.650000, 56.261, -66.2716
3.700000, 56.028, -65.3871
3.750000, 55.799, -64.1723
3.820000, 55.492, -62.0262
3.870000, 55.297, -60.2509
3.950000, 55.063, -57.2076
4.000000, 54.983, -55.3299
4.060000, 54.972, -53.1144
4.120000, 55.051, -50.8177
4.180000, 55.203, -48.5265
4.250000, 55.443, -46.1259
4.310000, 55.676, -44.4534
4.370000, 55.917, -43.2495
4.440000, 56.209, -42.4395
4.500000, 56.487, -42.0860
4.550000, 56.734, -41.9832
4.620000, 57.082, -42.1430
4.680000, 57.362, -42.5413
4.750000, 57.647, -43.3235
4.820000, 57.887, -44.5138
4.870000, 58.038, -45.5872
4.940000, 58.222, -47.2929
5.000000, 58.350, -48.8708
5.080000, 58.467, -51.0421
5.150000, 58.517, -53.0265
5.220000, 58.522, -55.2701
5.300000, 58.473, -58.1124
5.380000, 58.355, -61.0317
5.450000, 58.190, -63.5056
5.520000, 57.968, -65.8827
5.600000, 57.654, -68.7438
5.700000, 57.154, -72.5746
5.800000, 56.476, -76.2423
5.900000, 55.578, -79.3612
6.000000, 54.478, -82.1923
6.080000, 53.441, -84.2446
6.150000, 52.386, -85.5460
6.220000, 51.134, -85.9157
6.300000, 49.299, -84.4814
6.400000, 46.408, -77.8371
6.500000, 43.701, -59.7179
6.600000, 42.769, -26.3848
6.700000, 44.512, 0.5821
6.800000, 47.614, 12.1974
6.900000, 50.561, 15.7598
7.000000, 52.718, 15.4780
7.100000, 54.282, 13.2879
7.200000, 55.515, 10.2863
7.300000, 56.547, 6.8734
7.400000, 57.415, 3.0008
7.500000, 58.102, -1.2908
7.620000, 58.740, -6.5029
7.750000, 59.271, -12.0909
7.880000, 59.635, -17.9735
8.000000, 59.835, -23.3245
8.120000, 59.925, -28.4203
8.250000, 59.898, -33.9761
8.380000, 59.747, -39.3087
8.500000, 59.505, -43.8023
8.620000, 59.165, -48.0664
8.750000, 58.694, -52.2551
8.850000, 58.261, -54.9500
9.000000, 57.502, -58.1377
9.120000, 56.837, -59.8629
9.250000, 56.080, -60.5517
9.380000, 55.310, -59.8287
9.500000, 54.693, -58.0329
9.620000, 54.238, -55.1805
9.750000, 53.933, -51.0906
9.880000, 53.842, -46.7997
10.000000, 53.971, -43.2240
10.150000, 54.343, -39.6293
10.300000, 54.787, -37.2704
10.440000, 55.214, -36.1230
10.600000, 55.674, -35.6020
10.750000, 56.031, -35.5886
10.900000, 56.328, -35.8193
11.060000, 56.599, -36.0289
11.200000, 56.808, -36.1370
11.380000, 57.078, -36.0798
11.500000, 57.272, -35.9046
11.720000, 57.673, -35.5283
11.800000, 57.838, -35.4291
12.060000, 58.419, -35.4233
12.200000, 58.738, -35.7558
12.410000, 59.191, -36.5844
12.500000, 59.364, -37.0347
12.650000, 59.616, -37.8744
12.800000, 59.823, -38.7091
13.150000, 60.136, -40.2382
13.200000, 60.168, -40.3681
13.400000, 60.278, -40.5853
13.600000, 60.395, -40.3453
13.800000, 60.552, -39.7353
14.000000, 60.764, -39.0188
14.300000, 61.168, -38.2674
14.500000, 61.449, -38.1615
14.750000, 61.748, -38.4217
15.000000, 61.947, -38.8690
15.250000, 62.037, -39.1137
15.500000, 62.059, -38.6957
15.750000, 62.090, -37.4477
16.000000, 62.232, -35.5824
16.250000, 62.537, -33.8330
16.500000, 62.973, -32.8648
16.750000, 63.438, -33.1373
17.000000, 63.816, -34.6169
17.250000, 64.014, -36.9478
17.500000, 63.977, -39.5383
17.750000, 63.688, -41.6472
18.000000, 63.187, -42.5083
18.250000, 62.587, -41.3654
18.500000, 62.103, -37.8630
18.750000, 61.969, -32.7369
19.000000, 62.291, -27.7683
19.250000, 62.922, -24.7256
19.500000, 63.624, -24.0136
19.750000, 64.212, -25.1840
20.000000, 64.597, -27.4578
20.299999, 64.773, -30.6013
20.600000, 64.699, -33.1808
20.900000, 64.508, -34.5219
21.200001, 64.371, -34.5824
21.400000, 64.379, -34.2304
21.799999, 64.647, -33.8942
22.000000, 64.845, -34.3474
22.400000, 65.160, -36.6006
22.700001, 65.213, -38.7876
23.000000, 65.087, -40.5458
23.299999, 64.847, -41.1645
23.600000, 64.628, -40.2270
24.000000, 64.631, -37.0848
24.299999, 64.935, -34.5468
24.700001, 65.595, -32.5302
25.000000, 66.118, -32.2494
25.400000, 66.706, -32.8786
25.799999, 67.159, -33.7167
26.200001, 67.557, -34.2605
26.500000, 67.867, -34.5359
26.900000, 68.302, -35.0321
27.200001, 68.615, -35.6404
27.600000, 68.961, -36.6499
28.000000, 69.210, -37.4805
28.500000, 69.462, -37.6919
29.000000, 69.811, -37.0992
29.500000, 70.319, -36.8398
30.000000, 70.843, -37.8181
30.400000, 71.140, -39.3548
30.700001, 71.254, -40.5770
31.100000, 71.273, -41.7730
31.500000, 71.208, -42.0253
32.000000, 71.176, -40.8887
32.500000, 71.332, -38.9953
33.000000, 71.651, -37.5107
33.500000, 72.004, -36.9025
34.000000, 72.305, -36.8984
34.500000, 72.546, -37.1554
35.000000, 72.738, -37.5372
35.500000, 72.877, -37.9959
36.000000, 72.954, -38.3215
36.500000, 73.004, -38.2402
37.000000, 73.096, -37.7316
37.500000, 73.275, -37.1846
38.200001, 73.598, -36.9810
38.700001, 73.810, -37.0083
39.500000, 74.205, -36.6805
40.000000, 74.543, -36.7514
40.599998, 74.912, -37.6621
41.200001, 75.103, -38.5805
41.799999, 75.238, -38.3650
42.500000, 75.603, -37.7333
43.099998, 75.934, -38.5493
43.700001, 76.002, -39.7381
44.400002, 75.939, -38.9935
45.000000, 76.208, -37.3561
45.500000, 76.628, -37.4148
46.200001, 77.014, -39.9931
46.799999, 77.004, -42.1204
47.500000, 76.961, -42.3927
48.200001, 77.222, -41.9027
48.700001, 77.474, -42.2399
49.400002, 77.691, -42.9003
50.000000, 77.819, -42.4308
50.799999, 78.167, -40.9646
51.500000, 78.500, -40.3646
52.200001, 78.691, -39.6871
53.000000, 78.943, -38.5159
53.799999, 79.150, -38.7994
54.500000, 79.068, -39.3037
55.200001, 79.013, -39.3999
56.000000, 78.971, -42.1216
57.000000, 77.828, -44.3525
58.000000, 77.510, -31.1346
59.000000, 79.375, -28.6577
60.000000, 80.285, -35.4962
60.799999, 80.681, -39.4029
61.500000, 80.955, -42.0516
62.200001, 81.101, -43.5275
63.000000, 81.351, -43.6083
64.000000, 81.774, -44.3093
65.000000, 81.934, -44.9456
66.000000, 82.158, -44.2120
67.000000, 82.515, -44.5284
68.000000, 82.741, -45.6143
69.000000, 83.007, -45.9753
70.000000, 83.422, -47.5292
71.000000, 83.535, -50.0260
72.000000, 83.511, -50.0880
73.000000, 83.782, -49.4845
74.000000, 84.014, -50.2381
75.000000, 84.081, -50.3956
76.199997, 84.247, -49.5407
77.500000, 84.517, -49.0915
78.800003, 84.782, -49.0448
80.000000, 85.062, -49.4391
81.199997, 85.294, -50.4985
82.500000, 85.476, -51.2136
83.800003, 85.729, -51.3711
85.000000, 86.005, -51.5466
86.199997, 86.241, -51.7726
87.500000, 86.413, -51.8206
88.500000, 86.524, -51.1748
90.000000, 86.975, -50.8020
91.199997, 87.211, -53.0080
92.500000, 87.254, -54.7437
93.800003, 87.381, -55.6296
95.000000, 87.580, -56.1097
96.199997, 87.821, -56.5266
97.500000, 88.062, -56.9512
98.800003, 88.259, -57.4165
100.000000, 88.405, -57.9554
101.500000, 88.553, -58.9097
103.000000, 88.691, -59.7389
104.400002, 88.870, -60.2631
106.000000, 89.122, -60.5771
107.500000, 89.375, -60.8866
109.000000, 89.589, -61.5115
110.599998, 89.768, -62.3155
112.000000, 89.935, -63.1275
113.800003, 90.154, -64.0157
115.000000, 90.300, -64.2577
117.199997, 90.526, -63.8411
118.000000, 90.595, -63.3996
120.599998, 91.046, -62.7566
122.000000, 91.200, -64.6714
124.099998, 91.275, -67.3962
125.000000, 91.314, -68.2116
126.500000, 91.445, -68.9928
128.000000, 91.634, -69.5761
131.500000, 92.007, -70.8418
132.000000, 92.054, -71.0468
134.000000, 92.245, -71.9610
136.000000, 92.458, -72.9675
138.000000, 92.643, -74.0687
140.000000, 92.773, -74.8058
143.000000, 92.996, -75.6627
145.000000, 93.155, -76.3908
147.500000, 93.354, -77.3133
150.000000, 93.541, -78.3372
152.500000, 93.711, -79.3312
155.000000, 93.878, -80.2451
157.500000, 94.027, -81.1054
160.000000, 94.146, -82.2328
162.500000, 94.262, -83.1773
165.000000, 94.444, -84.0579
167.500000, 94.600, -84.9078
170.000000, 94.732, -85.8352
172.500000, 94.850, -87.0009
175.000000, 94.967, -87.8751
177.500000, 95.108, -88.4051
180.000000, 95.225, -89.1046
182.500000, 95.307, -89.9989
185.000000, 95.390, -90.7875
187.500000, 95.502, -91.5742
190.000000, 95.611, -92.4207
192.500000, 95.730, -93.2537
195.000000, 95.848, -94.0859
197.500000, 95.944, -94.7736
200.000000, 96.015, -95.3518
203.000000, 96.089, -96.0800
206.000000, 96.180, -96.9487
209.000000, 96.270, -97.8563
212.000000, 96.346, -98.6970
214.000000, 96.393, -99.2090
218.000000, 96.499, -100.0981
220.000000, 96.557, -100.4886
224.000000, 96.674, -101.3961
227.000000, 96.750, -102.1798
230.000000, 96.821, -102.9950
233.000000, 96.892, -103.6878
236.000000, 96.953, -104.1103
240.000000, 97.009, -104.6821
243.000000, 97.058, -105.5331
247.000000, 97.127, -106.6658
250.000000, 97.170, -107.2214
254.000000, 97.220, -107.9247
258.000000, 97.285, -108.6930
262.000000, 97.347, -109.5554
265.000000, 97.371, -110.1296
269.000000, 97.391, -110.8256
272.000000, 97.407, -111.2821
276.000000, 97.436, -111.8479
280.000000, 97.459, -112.4486
285.000000, 97.490, -113.0624
290.000000, 97.513, -113.5207
295.000000, 97.529, -113.9913
300.000000, 97.557, -114.3767
304.000000, 97.588, -114.6539
307.000000, 97.618, -114.7912
311.000000, 97.663, -114.9633
315.000000, 97.701, -115.2088
320.000000, 97.741, -115.5647
325.000000, 97.783, -115.8369
330.000000, 97.834, -116.0801
335.000000, 97.885, -116.3128
340.000000, 97.937, -116.4918
345.000000, 97.991, -116.6901
350.000000, 98.044, -116.9268
355.000000, 98.095, -117.1653
360.000000, 98.143, -117.3392
365.000000, 98.187, -117.6077
370.000000, 98.240, -117.8640
375.000000, 98.303, -118.0947
382.000000, 98.379, -118.4305
387.000000, 98.424, -118.7367
395.000000, 98.498, -119.1627
400.000000, 98.554, -119.4177
406.000000, 98.618, -119.7487
412.000000, 98.665, -120.1162
418.000000, 98.724, -120.6212
425.000000, 98.783, -121.3442
431.000000, 98.797, -122.2124
437.000000, 98.739, -123.4010
444.000000, 98.503, -124.2178
450.000000, 98.271, -123.2844
455.000000, 98.216, -121.7706
462.000000, 98.324, -120.3644
468.000000, 98.457, -119.9046
475.000000, 98.580, -119.7268
482.000000, 98.678, -119.7867
487.000000, 98.736, -119.8863
494.000000, 98.806, -119.9877
500.000000, 98.859, -120.0627
508.000000, 98.926, -120.1188
515.000000, 98.982, -120.1463
522.000000, 99.034, -120.1813
530.000000, 99.095, -120.2511
538.000000, 99.161, -120.2382
545.000000, 99.204, -120.2333
552.000000, 99.238, -120.2660
560.000000, 99.283, -120.3278
570.000000, 99.345, -120.3265
580.000000, 99.403, -120.2492
590.000000, 99.447, -120.2617
600.000000, 99.483, -120.2482
608.000000, 99.516, -120.2302
615.000000, 99.547, -120.1992
622.000000, 99.578, -120.1517
630.000000, 99.610, -120.0998
640.000000, 99.646, -119.9393
650.000000, 99.682, -119.7978
660.000000, 99.718, -119.6756
670.000000, 99.750, -119.5035
680.000000, 99.782, -119.3076
690.000000, 99.826, -119.0903
700.000000, 99.868, -118.9264
710.000000, 99.902, -118.7500
720.000000, 99.938, -118.5626
730.000000, 99.975, -118.3636
740.000000, 100.012, -118.1676
750.000000, 100.036, -117.9789
762.000000, 100.070, -117.5495
775.000000, 100.128, -117.1465
788.000000, 100.176, -116.9149
800.000000, 100.210, -116.7256
812.000000, 100.244, -116.4754
825.000000, 100.283, -116.1774
838.000000, 100.319, -115.8483
850.000000, 100.341, -115.5350
862.000000, 100.365, -115.2389
875.000000, 100.401, -114.9047
885.000000, 100.435, -114.6228
900.000000, 100.470, -114.1785
912.000000, 100.491, -113.7467
925.000000, 100.513, -113.2862
938.000000, 100.538, -112.8662
950.000000, 100.559, -112.4510
962.000000, 100.574, -112.0288
975.000000, 100.594, -111.5158
988.000000, 100.617, -110.9835
1000.000000, 100.636, -110.5139
1015.000000, 100.657, -109.8443
1030.000000, 100.670, -109.1536
1044.000000, 100.693, -108.5110
1060.000000, 100.728, -107.7084
1075.000000, 100.760, -106.8899
1090.000000, 100.800, -106.0455
1106.000000, 100.856, -105.1614
1120.000000, 100.915, -104.3719
1138.000000, 100.987, -103.3220
1150.000000, 101.031, -102.5584
1172.000000, 101.130, -101.1993
1180.000000, 101.174, -100.7155
1206.000000, 101.327, -99.1455
1220.000000, 101.413, -98.3016
1241.000000, 101.555, -96.9390
1250.000000, 101.618, -96.3372
1265.000000, 101.727, -95.3409
1280.000000, 101.847, -94.3391
1315.000000, 102.152, -91.9722
1320.000000, 102.194, -91.6408
1340.000000, 102.369, -90.3713
1360.000000, 102.544, -89.0838
1380.000000, 102.725, -87.8055
1400.000000, 102.930, -86.5283
1430.000000, 103.277, -84.7482
1450.000000, 103.526, -83.5657
1475.000000, 103.840, -82.0513
1500.000000, 104.175, -80.6878
1525.000000, 104.524, -79.4862
1550.000000, 104.893, -78.4062
1575.000000, 105.270, -77.5250
1600.000000, 105.659, -76.8016
1625.000000, 106.064, -76.2287
1650.000000, 106.469, -75.8652
1675.000000, 106.874, -75.6618
1700.000000, 107.279, -75.6376
1725.000000, 107.672, -75.8757
1750.000000, 108.053, -76.2535
1775.000000, 108.425, -76.8390
1800.000000, 108.779, -77.5597
1825.000000, 109.113, -78.3404
1850.000000, 109.432, -79.2653
1875.000000, 109.729, -80.3218
1900.000000, 110.007, -81.4007
1925.000000, 110.272, -82.5409
1950.000000, 110.520, -83.7393
1975.000000, 110.751, -84.9614
2000.000000, 110.968, -86.2349
2030.000000, 111.210, -87.8404
2060.000000, 111.433, -89.4945
2090.000000, 111.636, -91.1952
2120.000000, 111.816, -92.9709
2140.000000, 111.926, -94.1957
2180.000000, 112.114, -96.6661
2200.000000, 112.190, -97.9419
2240.000000, 112.306, -100.5243
2270.000000, 112.361, -102.4513
2300.000000, 112.390, -104.3859
2330.000000, 112.390, -106.3036
2360.000000, 112.363, -108.1638
2400.000000, 112.283, -110.5723
2430.000000, 112.194, -112.2679
2470.000000, 112.042, -114.3603
2500.000000, 111.905, -115.7922
2540.000000, 111.694, -117.4967
2580.000000, 111.457, -118.9572
2620.000000, 111.202, -120.1817
2650.000000, 110.999, -120.9502
2690.000000, 110.717, -121.7002
2720.000000, 110.503, -122.0728
2760.000000, 110.231, -122.3569
2800.000000, 109.964, -122.5375
2850.000000, 109.629, -122.5434
2900.000000, 109.304, -122.2810
2950.000000, 108.992, -121.7960
3000.000000, 108.695, -121.1265
3040.000000, 108.469, -120.4653
3070.000000, 108.306, -119.9160
3110.000000, 108.098, -119.1059
3150.000000, 107.901, -118.2123
3200.000000, 107.669, -117.0262
3250.000000, 107.450, -115.7585
3300.000000, 107.246, -114.3658
3350.000000, 107.059, -112.9261
3400.000000, 106.888, -111.4170
3450.000000, 106.738, -109.8701
3500.000000, 106.607, -108.3038
3550.000000, 106.487, -106.6939
3600.000000, 106.378, -105.0949
3650.000000, 106.279, -103.4352
3700.000000, 106.192, -101.7276
3750.000000, 106.120, -99.9909
3820.000000, 106.039, -97.5452
3870.000000, 105.996, -95.8020
3950.000000, 105.947, -93.0531
4000.000000, 105.930, -91.3048
4060.000000, 105.929, -89.2685
4120.000000, 105.939, -87.2958
4180.000000, 105.955, -85.3567
4250.000000, 105.990, -83.1005
4310.000000, 106.032, -81.1835
4370.000000, 106.080, -79.2978
4440.000000, 106.154, -77.1029
4500.000000, 106.237, -75.3158
4550.000000, 106.321, -73.8431
4620.000000, 106.470, -71.9225
4680.000000, 106.622, -70.4659
4750.000000, 106.815, -69.0297
4820.000000, 107.027, -67.8604
4870.000000, 107.190, -67.2897
4940.000000, 107.407, -66.9530
5000.000000, 107.548, -67.1252
5080.000000, 107.607, -67.7545
5150.000000, 107.496, -68.0415
5220.000000, 107.304, -66.9961
5300.000000, 107.277, -64.1375
5380.000000, 107.605, -61.6869
5450.000000, 108.005, -61.2858
5520.000000, 108.321, -62.2321
5600.000000, 108.510, -63.9342
5700.000000, 108.576, -66.1041
5800.000000, 108.508, -68.3278
5900.000000, 108.314, -70.3611
6000.000000, 108.013, -72.2522
6080.000000, 107.684, -73.4314
6150.000000, 107.349, -74.0764
6220.000000, 106.994, -74.4120
6300.000000, 106.566, -74.3826
6400.000000, 106.017, -73.6836
6500.000000, 105.489, -72.2783
6600.000000, 105.011, -70.2428
6700.000000, 104.623, -67.7905
6800.000000, 104.337, -65.2627
6900.000000, 104.143, -62.8942
7000.000000, 104.011, -60.7494
7100.000000, 103.917, -58.7781
7200.000000, 103.853, -57.1131
7300.000000, 103.771, -55.8132
7400.000000, 103.612, -54.3279
7500.000000, 103.556, -51.8116
7620.000000, 103.784, -49.8702
7750.000000, 104.065, -49.9415
7880.000000, 104.159, -51.4486
8000.000000, 104.054, -53.8058
8120.000000, 103.745, -56.6813
8250.000000, 103.169, -59.8796
8380.000000, 102.359, -62.5184
8500.000000, 101.456, -64.1487
8620.000000, 100.458, -64.8097
8750.000000, 99.319, -64.5415
8850.000000, 98.428, -63.6525
9000.000000, 97.112, -61.4867
9120.000000, 96.092, -59.2222
9250.000000, 95.020, -56.4991
9380.000000, 93.964, -53.5900
9500.000000, 92.985, -50.9075
9620.000000, 91.965, -48.1541
9750.000000, 90.779, -44.9298
9880.000000, 89.479, -41.1107
10000.000000, 88.173, -36.3941
10150.000000, 86.481, -27.8704
10300.000000, 85.017, -15.7413
10440.000000, 84.203, -2.6682
10600.000000, 83.956, 10.2325
10750.000000, 84.032, 18.7514
10900.000000, 84.148, 24.0991
11060.000000, 84.166, 26.4881
11200.000000, 83.910, 25.4859
11380.000000, 82.835, 20.9383
11500.000000, 81.617, 16.5790
11720.000000, 78.543, -0.6312
11800.000000, 77.238, -15.1898
12060.000000, 77.394, -137.9665
12200.000000, 79.892, -161.1450
12410.000000, 83.224, -174.9941
12500.000000, 84.418, -179.4051
12650.000000, 85.965, 172.5498
12800.000000, 86.814, 163.6532
13150.000000, 86.246, 147.8063
13200.000000, 85.986, 146.8502
13400.000000, 84.950, 146.1531
13600.000000, 84.173, 147.6436
13800.000000, 83.576, 149.0195
14000.000000, 82.945, 148.8341
14300.000000, 81.191, 147.5784
14500.000000, 79.372, 149.8309
14750.000000, 76.856, 160.2906
15000.000000, 75.129, 178.8305
15250.000000, 75.018, -162.4995
15500.000000, 75.973, -153.2544
15750.000000, 76.452, -154.3558
16000.000000, 75.545, -158.7839
16250.000000, 73.268, -157.8000
16500.000000, 70.846, -145.3840
16750.000000, 69.485, -132.8400
17000.000000, 68.044, -123.4963
17250.000000, 66.304, -111.1888
17500.000000, 64.673, -95.9163
17750.000000, 63.269, -79.0289
18000.000000, 62.025, -61.4550
18250.000000, 60.757, -42.9768
18500.000000, 59.450, -20.3058
18750.000000, 58.934, 13.3698
19000.000000, 60.968, 55.2789
19250.000000, 64.705, 78.9163
19500.000000, 67.868, 81.8662
19750.000000, 69.527, 74.5440
20000.000000, 69.399, 63.4269
20300.000000, 66.872, 52.7800
20600.000000, 62.575, 48.9940
20900.000000, 57.008, 47.6165
21200.000000, 52.801, -100.8729
21400.000000, 53.385, -126.4072
21800.000000, 54.983, -119.6050
22000.000000, 54.264, -115.9737
22400.000000, 49.442, -111.9403
22700.000000, 44.395, -110.5057
23000.000000, 40.753, -102.3978
23300.000000, 39.492, 12.9120
23600.000000, 39.010, 58.7332
24000.000000, 38.324, -143.6684
