* Measurement data measured by REW V5.31
* Source: Headset (DS by VECLAN.COM), MICROPHONE (Master Volume), L, volume: 1.000. Timing signal peak level -11.8 dBFS, measurement signal peak level -7.4 dBFS
* Format: 4M Log Swept Sine, 1 sweep at -12.0 dBFS using an acoustic timing reference
* Dated: Apr 13, 2024 9:51:30 PM
* REW Settings:
*  C-weighting compensation: Off
*  Target level: 85.0 dB
* Note: ; Delay -0.0827 ms (-28 mm, -1.12 in) using estimated IR delay relative to Acoustic reference played from HEADPHONE L with no timing offset
* Measurement: Samsung Earbuds L3
* Smoothing: 1/24 octave
* Frequency Step: 1/48 octave
* Start Frequency: 1.000 Hz
*
* Freq(Hz), SPL(dB), Phase(degrees)
1.000000, 46.002, 153.4136
1.015000, 46.332, 152.6591
1.030000, 46.651, 151.9045
1.044000, 46.937, 151.1946
1.060000, 47.250, 150.3697
1.075000, 47.528, 149.5765
1.090000, 47.790, 148.7562
1.106000, 48.053, 147.8369
1.120000, 48.274, 146.9819
1.138000, 48.547, 145.8159
1.150000, 48.723, 145.0045
1.172000, 49.034, 143.4597
1.180000, 49.142, 142.8796
1.206000, 49.480, 140.9720
1.220000, 49.653, 139.9394
1.241000, 49.899, 138.3961
1.250000, 49.999, 137.7394
1.265000, 50.161, 136.6541
1.280000, 50.315, 135.5829
1.315000, 50.642, 133.1485
1.320000, 50.686, 132.8088
1.340000, 50.850, 131.4703
1.360000, 51.000, 130.1649
1.380000, 51.136, 128.8513
1.400000, 51.257, 127.5490
1.430000, 51.412, 125.6328
1.450000, 51.497, 124.3677
1.475000, 51.578, 122.7596
1.500000, 51.622, 121.0488
1.525000, 51.628, 119.2217
1.550000, 51.600, 117.3032
1.575000, 51.543, 115.2982
1.600000, 51.461, 113.2136
1.625000, 51.359, 111.1090
1.650000, 51.243, 109.0014
1.675000, 51.117, 106.9041
1.700000, 50.986, 104.8268
1.725000, 50.854, 102.7751
1.750000, 50.728, 100.7515
1.775000, 50.612, 98.7377
1.800000, 50.510, 96.7116
1.825000, 50.425, 94.6878
1.850000, 50.354, 92.6069
1.875000, 50.287, 90.4072
1.900000, 50.220, 88.0875
1.925000, 50.155, 85.6721
1.950000, 50.090, 83.1888
1.975000, 50.027, 80.6473
2.000000, 49.966, 78.0558
2.030000, 49.897, 74.9544
2.060000, 49.832, 71.8891
2.090000, 49.773, 68.8824
2.120000, 49.720, 65.9489
2.140000, 49.689, 64.0366
2.180000, 49.636, 60.2844
2.200000, 49.616, 58.4079
2.240000, 49.587, 54.5464
2.270000, 49.576, 51.5151
2.300000, 49.572, 48.4030
2.330000, 49.574, 45.2549
2.360000, 49.582, 42.1133
2.400000, 49.599, 37.9517
2.430000, 49.616, 34.9188
2.470000, 49.642, 31.0423
2.500000, 49.662, 28.2757
2.540000, 49.689, 24.7725
2.580000, 49.718, 21.3788
2.620000, 49.754, 17.8940
2.650000, 49.786, 15.2204
2.690000, 49.835, 11.6259
2.720000, 49.873, 8.9494
2.760000, 49.924, 5.4647
2.800000, 49.971, 2.0870
2.850000, 50.020, -1.8689
2.900000, 50.050, -5.4834
2.950000, 50.062, -8.8462
3.000000, 50.063, -12.2604
3.040000, 50.058, -15.0662
3.070000, 50.050, -17.1796
3.110000, 50.031, -19.9658
3.150000, 50.000, -22.6676
3.200000, 49.942, -25.8812
3.250000, 49.856, -28.8198
3.300000, 49.740, -31.4615
3.350000, 49.603, -33.9953
3.400000, 49.447, -36.6173
3.450000, 49.268, -39.2861
3.500000, 49.060, -41.9081
3.550000, 48.817, -44.3828
3.600000, 48.531, -46.6266
3.650000, 48.197, -48.5350
3.700000, 47.811, -50.1473
3.750000, 47.374, -51.6237
3.820000, 46.687, -53.5573
3.870000, 46.152, -54.7435
3.950000, 45.231, -55.9681
4.000000, 44.619, -56.0724
4.060000, 43.801, -55.2245
4.120000, 42.817, -53.1168
4.180000, 41.720, -49.5063
4.250000, 40.481, -42.9777
4.310000, 39.641, -35.1727
4.370000, 39.184, -25.7415
4.440000, 39.293, -13.8461
4.500000, 39.900, -3.9619
4.550000, 40.657, 3.1404
4.620000, 41.908, 10.5775
4.680000, 42.994, 14.6873
4.750000, 44.119, 17.3112
4.820000, 45.095, 18.2511
4.870000, 45.761, 18.2874
4.940000, 46.660, 17.7738
5.000000, 47.382, 16.9492
5.080000, 48.242, 15.4279
5.150000, 48.876, 13.7056
5.220000, 49.403, 11.5562
5.300000, 49.892, 8.7755
5.380000, 50.283, 5.9126
5.450000, 50.562, 3.4378
5.520000, 50.788, 0.9556
5.600000, 50.976, -2.1173
5.700000, 51.102, -6.2198
5.800000, 51.114, -10.1956
5.900000, 51.021, -13.9067
6.000000, 50.823, -17.7307
6.080000, 50.585, -20.8694
6.150000, 50.313, -23.4766
6.220000, 49.978, -25.8383
6.300000, 49.521, -28.2758
6.400000, 48.839, -31.1503
6.500000, 48.022, -33.6722
6.600000, 47.038, -35.3291
6.700000, 45.814, -35.7139
6.800000, 44.424, -34.5717
6.900000, 43.121, -31.4379
7.000000, 42.123, -25.4631
7.100000, 41.426, -15.7901
7.200000, 41.042, -3.6489
7.300000, 41.089, 7.5677
7.400000, 41.693, 15.6613
7.500000, 42.760, 20.6526
7.620000, 44.159, 23.3464
7.750000, 45.347, 23.1866
7.880000, 46.225, 20.8407
8.000000, 46.835, 17.7996
8.120000, 47.257, 14.2483
8.250000, 47.505, 9.6846
8.380000, 47.565, 4.9875
8.500000, 47.473, 0.8267
8.620000, 47.241, -3.3948
8.750000, 46.848, -7.6621
8.850000, 46.448, -10.4053
9.000000, 45.700, -13.7085
9.120000, 45.041, -15.4469
9.250000, 44.310, -15.8519
9.380000, 43.602, -14.5597
9.500000, 43.140, -12.2087
9.620000, 42.987, -9.0034
9.750000, 43.136, -5.1604
9.880000, 43.531, -2.2782
10.000000, 44.086, -1.0034
10.150000, 44.930, -1.1003
10.300000, 45.722, -2.9532
10.440000, 46.354, -5.9779
10.600000, 46.930, -10.1545
10.750000, 47.295, -14.5179
10.900000, 47.494, -19.0272
11.060000, 47.522, -23.3860
11.200000, 47.395, -26.7909
11.380000, 47.058, -29.8536
11.500000, 46.734, -30.7405
11.720000, 46.152, -29.5388
11.800000, 46.010, -28.0135
12.060000, 46.053, -20.1691
12.200000, 46.569, -15.6770
12.410000, 47.826, -10.8358
12.500000, 48.438, -9.8960
12.650000, 49.494, -9.6711
12.800000, 50.498, -10.8716
13.150000, 52.346, -17.6246
13.200000, 52.548, -18.8640
13.400000, 53.201, -24.2522
13.600000, 53.610, -29.8937
13.800000, 53.782, -35.5604
14.000000, 53.731, -40.8834
14.300000, 53.258, -47.8054
14.500000, 52.705, -51.1383
14.750000, 51.819, -53.2557
15.000000, 50.859, -52.4295
15.250000, 50.087, -48.5325
15.500000, 49.758, -42.6191
15.750000, 49.928, -36.7987
16.000000, 50.417, -32.8138
16.250000, 50.968, -30.9453
16.500000, 51.423, -30.5521
16.750000, 51.725, -30.8291
17.000000, 51.898, -31.1079
17.250000, 52.001, -31.0352
17.500000, 52.107, -30.4797
17.750000, 52.276, -29.6720
18.000000, 52.517, -28.9944
18.250000, 52.799, -28.7980
18.500000, 53.055, -29.1607
18.750000, 53.226, -29.8888
19.000000, 53.277, -30.6150
19.250000, 53.214, -30.8522
19.500000, 53.097, -30.1425
19.750000, 53.028, -28.3071
20.000000, 53.132, -25.6614
20.299999, 53.565, -22.6704
20.600000, 54.240, -21.2869
20.900000, 54.933, -22.1218
21.200001, 55.432, -24.7926
21.400000, 55.594, -27.1224
21.799999, 55.458, -31.6080
22.000000, 55.184, -33.0454
22.400000, 54.454, -32.7040
22.700001, 54.115, -29.3170
23.000000, 54.272, -24.9095
23.299999, 54.879, -22.0232
23.600000, 55.632, -21.8942
24.000000, 56.384, -25.1119
24.299999, 56.616, -28.5947
24.700001, 56.516, -32.5139
25.000000, 56.280, -33.8796
25.400000, 56.082, -33.3213
25.799999, 56.268, -31.5903
26.200001, 56.734, -30.8258
26.500000, 57.083, -31.1749
26.900000, 57.417, -32.0464
27.200001, 57.591, -32.3913
27.600000, 57.841, -32.1713
28.000000, 58.182, -31.7122
28.500000, 58.615, -31.6418
29.000000, 58.866, -31.3635
29.500000, 59.087, -29.3887
30.000000, 59.656, -26.6984
30.400000, 60.334, -26.1880
30.700001, 60.802, -27.2819
31.100000, 61.177, -30.1196
31.500000, 61.179, -33.2158
32.000000, 60.780, -35.1724
32.500000, 60.384, -33.8845
33.000000, 60.413, -31.2993
33.500000, 60.730, -30.3540
34.000000, 60.955, -31.1450
34.500000, 60.999, -32.0504
35.000000, 61.029, -32.1661
35.500000, 61.178, -32.0201
36.000000, 61.382, -32.2882
36.500000, 61.533, -32.7324
37.000000, 61.649, -32.7225
37.500000, 61.830, -32.2306
38.200001, 62.217, -31.8459
38.700001, 62.465, -32.1399
39.500000, 62.696, -32.5352
40.000000, 62.815, -32.2511
40.599998, 63.035, -31.7047
41.200001, 63.337, -31.6733
41.799999, 63.628, -32.5810
42.500000, 63.817, -34.3866
43.099998, 63.831, -35.5710
43.700001, 63.824, -35.7124
44.400002, 63.972, -34.8060
45.000000, 64.271, -33.8781
45.500000, 64.613, -33.3552
46.200001, 65.178, -33.4524
46.799999, 65.623, -34.5950
47.500000, 65.909, -36.4761
48.200001, 65.964, -37.3112
48.700001, 66.010, -36.9213
49.400002, 66.211, -36.0178
50.000000, 66.428, -35.7362
50.799999, 66.649, -35.6415
51.500000, 66.860, -35.3578
52.200001, 67.140, -35.4225
53.000000, 67.427, -36.2223
53.799999, 67.621, -37.0394
54.500000, 67.778, -37.3459
55.200001, 67.961, -37.4722
56.000000, 68.173, -37.5457
57.000000, 68.455, -37.5944
58.000000, 68.663, -38.3823
59.000000, 68.626, -38.1509
60.000000, 68.873, -36.0039
60.799999, 69.319, -36.0154
61.500000, 69.575, -37.3641
62.200001, 69.699, -38.4938
63.000000, 69.854, -39.0537
64.000000, 70.133, -39.6216
65.000000, 70.419, -40.1712
66.000000, 70.710, -40.5809
67.000000, 70.974, -40.9699
68.000000, 71.204, -41.1976
69.000000, 71.426, -41.3855
70.000000, 71.626, -41.6219
71.000000, 71.831, -41.7845
72.000000, 72.067, -42.1171
73.000000, 72.293, -42.6623
74.000000, 72.505, -43.1595
75.000000, 72.717, -43.5597
76.199997, 72.973, -43.9277
77.500000, 73.256, -44.3710
78.800003, 73.508, -44.8644
80.000000, 73.741, -45.3165
81.199997, 73.962, -45.9041
82.500000, 74.190, -46.4297
83.800003, 74.438, -46.8916
85.000000, 74.673, -47.3975
86.199997, 74.892, -47.9861
87.500000, 75.097, -48.5721
88.500000, 75.251, -48.8776
90.000000, 75.515, -49.3765
91.199997, 75.728, -49.9567
92.500000, 75.947, -50.5729
93.800003, 76.171, -51.0251
95.000000, 76.390, -51.4590
96.199997, 76.588, -51.9130
97.500000, 76.790, -52.3713
98.800003, 76.975, -52.9198
100.000000, 77.123, -53.4609
101.500000, 77.312, -53.9644
103.000000, 77.545, -54.5918
104.400002, 77.750, -55.3713
106.000000, 77.960, -56.0605
107.500000, 78.176, -56.5090
109.000000, 78.401, -57.0862
110.599998, 78.618, -57.8104
112.000000, 78.784, -58.4388
113.800003, 78.972, -59.1104
115.000000, 79.100, -59.5612
117.199997, 79.309, -60.6794
118.000000, 79.374, -61.1002
120.599998, 79.646, -62.0427
122.000000, 79.853, -62.6759
124.099998, 80.144, -63.7280
125.000000, 80.255, -64.1429
126.500000, 80.416, -64.7647
128.000000, 80.555, -65.3032
131.500000, 80.841, -66.6951
132.000000, 80.880, -66.8984
134.000000, 81.048, -67.6617
136.000000, 81.244, -68.4343
138.000000, 81.439, -69.2958
140.000000, 81.625, -70.2184
143.000000, 81.883, -71.5862
145.000000, 82.050, -72.4298
147.500000, 82.245, -73.2600
150.000000, 82.456, -73.9697
152.500000, 82.685, -75.0309
155.000000, 82.874, -76.2903
157.500000, 83.035, -77.2917
160.000000, 83.177, -78.2017
162.500000, 83.309, -79.0781
165.000000, 83.462, -79.9363
167.500000, 83.618, -80.9078
170.000000, 83.750, -81.8190
172.500000, 83.876, -82.6899
175.000000, 84.000, -83.5668
177.500000, 84.121, -84.3915
180.000000, 84.233, -85.1148
182.500000, 84.362, -85.8301
185.000000, 84.486, -86.7557
187.500000, 84.558, -87.6822
190.000000, 84.591, -88.3705
192.500000, 84.675, -88.9735
195.000000, 84.807, -90.0280
197.500000, 84.932, -91.0283
200.000000, 85.030, -91.7997
203.000000, 85.112, -92.5616
206.000000, 85.214, -93.2794
209.000000, 85.338, -94.1283
212.000000, 85.429, -95.0289
214.000000, 85.472, -95.5919
218.000000, 85.563, -96.6559
220.000000, 85.613, -97.1541
224.000000, 85.710, -98.1281
227.000000, 85.783, -98.8568
230.000000, 85.852, -99.5807
233.000000, 85.904, -100.3613
236.000000, 85.938, -101.1714
240.000000, 85.985, -102.1662
243.000000, 86.033, -102.7545
247.000000, 86.085, -103.4559
250.000000, 86.116, -103.8982
254.000000, 86.157, -104.5465
258.000000, 86.184, -105.1243
262.000000, 86.216, -105.6173
265.000000, 86.247, -105.9681
269.000000, 86.297, -106.3267
272.000000, 86.340, -106.5891
276.000000, 86.394, -106.9847
280.000000, 86.446, -107.3702
285.000000, 86.523, -107.8667
290.000000, 86.590, -108.4148
295.000000, 86.664, -108.8871
300.000000, 86.740, -109.2261
304.000000, 86.804, -109.5087
307.000000, 86.851, -109.7516
311.000000, 86.906, -110.1012
315.000000, 86.957, -110.4443
320.000000, 87.021, -110.8580
325.000000, 87.087, -111.2334
330.000000, 87.145, -111.5995
335.000000, 87.198, -111.9297
340.000000, 87.249, -112.2473
345.000000, 87.294, -112.6228
350.000000, 87.345, -112.9858
355.000000, 87.403, -113.3092
360.000000, 87.462, -113.5614
365.000000, 87.521, -113.7676
370.000000, 87.577, -114.0524
375.000000, 87.619, -114.4030
382.000000, 87.680, -114.8597
387.000000, 87.719, -115.1600
395.000000, 87.798, -115.5961
400.000000, 87.850, -115.8677
406.000000, 87.896, -116.1940
412.000000, 87.940, -116.6230
418.000000, 87.996, -117.1724
425.000000, 88.058, -117.8689
431.000000, 88.074, -118.7458
437.000000, 87.997, -119.9045
444.000000, 87.738, -120.4493
450.000000, 87.549, -119.2411
455.000000, 87.545, -117.8805
462.000000, 87.673, -116.8575
468.000000, 87.783, -116.5992
475.000000, 87.864, -116.4630
482.000000, 87.922, -116.2584
487.000000, 87.978, -116.0574
494.000000, 88.089, -115.8489
500.000000, 88.187, -115.9260
508.000000, 88.294, -116.2183
515.000000, 88.356, -116.4558
522.000000, 88.403, -116.5878
530.000000, 88.448, -116.7081
538.000000, 88.491, -116.7750
545.000000, 88.532, -116.8575
552.000000, 88.564, -116.8975
560.000000, 88.595, -116.9210
570.000000, 88.641, -116.9360
580.000000, 88.694, -116.9119
590.000000, 88.745, -116.8324
600.000000, 88.788, -116.7758
608.000000, 88.823, -116.7379
615.000000, 88.854, -116.6956
622.000000, 88.882, -116.6202
630.000000, 88.907, -116.5142
640.000000, 88.939, -116.4027
650.000000, 88.975, -116.2823
660.000000, 89.005, -116.1570
670.000000, 89.032, -116.0247
680.000000, 89.061, -115.8361
690.000000, 89.091, -115.6261
700.000000, 89.121, -115.4459
710.000000, 89.154, -115.2577
720.000000, 89.188, -115.0265
730.000000, 89.221, -114.8162
740.000000, 89.242, -114.5873
750.000000, 89.262, -114.3375
762.000000, 89.296, -114.0261
775.000000, 89.327, -113.6767
788.000000, 89.352, -113.2937
800.000000, 89.375, -112.9382
812.000000, 89.398, -112.5535
825.000000, 89.425, -112.1350
838.000000, 89.454, -111.6964
850.000000, 89.472, -111.2736
862.000000, 89.490, -110.8779
875.000000, 89.515, -110.4559
885.000000, 89.531, -110.0825
900.000000, 89.554, -109.5037
912.000000, 89.568, -109.0140
925.000000, 89.580, -108.4916
938.000000, 89.590, -107.9674
950.000000, 89.599, -107.4380
962.000000, 89.611, -106.9144
975.000000, 89.620, -106.3124
988.000000, 89.629, -105.6632
1000.000000, 89.641, -104.9941
1015.000000, 89.655, -104.1520
1030.000000, 89.661, -103.3431
1044.000000, 89.666, -102.5277
1060.000000, 89.678, -101.5065
1075.000000, 89.694, -100.5216
1090.000000, 89.724, -99.5337
1106.000000, 89.768, -98.4225
1120.000000, 89.802, -97.4558
1138.000000, 89.844, -96.1998
1150.000000, 89.881, -95.3081
1172.000000, 89.965, -93.5747
1180.000000, 89.999, -92.9268
1206.000000, 90.121, -90.7959
1220.000000, 90.193, -89.6112
1241.000000, 90.319, -87.8327
1250.000000, 90.375, -87.0642
1265.000000, 90.466, -85.7657
1280.000000, 90.568, -84.4366
1315.000000, 90.821, -81.2980
1320.000000, 90.858, -80.8521
1340.000000, 91.017, -79.0093
1360.000000, 91.183, -77.1088
1380.000000, 91.358, -75.2397
1400.000000, 91.546, -73.3212
1430.000000, 91.866, -70.4470
1450.000000, 92.109, -68.5125
1475.000000, 92.435, -66.0248
1500.000000, 92.802, -63.5542
1525.000000, 93.198, -61.2634
1550.000000, 93.605, -59.0195
1575.000000, 94.047, -56.7719
1600.000000, 94.519, -54.7539
1625.000000, 95.019, -52.8377
1650.000000, 95.562, -51.0217
1675.000000, 96.149, -49.5647
1700.000000, 96.747, -48.4019
1725.000000, 97.354, -47.5000
1750.000000, 97.970, -46.8134
1775.000000, 98.607, -46.4131
1800.000000, 99.249, -46.4112
1825.000000, 99.880, -46.7404
1850.000000, 100.500, -47.3795
1875.000000, 101.108, -48.3162
1900.000000, 101.693, -49.5543
1925.000000, 102.256, -51.0264
1950.000000, 102.799, -52.7909
1975.000000, 103.297, -54.8618
2000.000000, 103.750, -57.0635
2030.000000, 104.247, -59.8965
2060.000000, 104.681, -62.8563
2090.000000, 105.064, -65.7734
2120.000000, 105.416, -68.7631
2140.000000, 105.628, -70.8333
2180.000000, 105.989, -74.9738
2200.000000, 106.142, -77.0459
2240.000000, 106.393, -81.2446
2270.000000, 106.529, -84.3558
2300.000000, 106.626, -87.4022
2330.000000, 106.687, -90.4070
2360.000000, 106.707, -93.2997
2400.000000, 106.684, -97.0251
2430.000000, 106.628, -99.6654
2470.000000, 106.516, -102.9150
2500.000000, 106.409, -105.2039
2540.000000, 106.232, -108.0504
2580.000000, 106.017, -110.6271
2620.000000, 105.772, -112.8969
2650.000000, 105.576, -114.3915
2690.000000, 105.299, -116.0758
2720.000000, 105.089, -117.1246
2760.000000, 104.818, -118.3301
2800.000000, 104.544, -119.3625
2850.000000, 104.202, -120.3602
2900.000000, 103.865, -121.0542
2950.000000, 103.533, -121.4475
3000.000000, 103.222, -121.5867
3040.000000, 102.984, -121.5746
3070.000000, 102.809, -121.4916
3110.000000, 102.585, -121.2620
3150.000000, 102.373, -120.9155
3200.000000, 102.126, -120.3685
3250.000000, 101.897, -119.7088
3300.000000, 101.688, -118.9336
3350.000000, 101.494, -118.1211
3400.000000, 101.314, -117.2216
3450.000000, 101.150, -116.2208
3500.000000, 101.013, -115.1388
3550.000000, 100.897, -114.0392
3600.000000, 100.789, -112.9387
3650.000000, 100.697, -111.7693
3700.000000, 100.621, -110.5703
3750.000000, 100.559, -109.3445
3820.000000, 100.502, -107.5942
3870.000000, 100.483, -106.4174
3950.000000, 100.461, -104.6137
4000.000000, 100.463, -103.5024
4060.000000, 100.473, -102.2307
4120.000000, 100.501, -100.9657
4180.000000, 100.545, -99.8430
4250.000000, 100.582, -98.6556
4310.000000, 100.619, -97.5306
4370.000000, 100.668, -96.4128
4440.000000, 100.753, -95.1477
4500.000000, 100.842, -94.2662
4550.000000, 100.923, -93.5753
4620.000000, 101.055, -92.7365
4680.000000, 101.192, -92.1489
4750.000000, 101.383, -91.7813
4820.000000, 101.580, -91.9634
4870.000000, 101.699, -92.4309
4940.000000, 101.807, -93.4504
5000.000000, 101.819, -94.5237
5080.000000, 101.693, -95.7198
5150.000000, 101.501, -95.7406
5220.000000, 101.426, -94.5757
5300.000000, 101.614, -93.5573
5380.000000, 101.914, -94.2739
5450.000000, 102.088, -96.1835
5520.000000, 102.114, -98.6358
5600.000000, 101.970, -101.3339
5700.000000, 101.638, -104.0491
5800.000000, 101.237, -106.2012
5900.000000, 100.735, -108.0890
6000.000000, 100.150, -108.9520
6080.000000, 99.708, -109.2607
6150.000000, 99.302, -109.2972
6220.000000, 98.900, -109.0425
6300.000000, 98.438, -108.5853
6400.000000, 97.832, -107.2668
6500.000000, 97.305, -105.1954
6600.000000, 96.855, -102.7617
6700.000000, 96.511, -99.9974
6800.000000, 96.282, -97.3754
6900.000000, 96.138, -95.0264
7000.000000, 96.069, -92.9200
7100.000000, 96.056, -91.1719
7200.000000, 96.070, -89.9479
7300.000000, 96.020, -89.0878
7400.000000, 95.930, -87.3099
7500.000000, 96.133, -84.8473
7620.000000, 96.668, -84.5336
7750.000000, 97.184, -87.1251
7880.000000, 97.404, -92.0210
8000.000000, 97.234, -97.9253
8120.000000, 96.671, -104.0364
8250.000000, 95.662, -109.6973
8380.000000, 94.394, -113.5093
8500.000000, 93.124, -115.3137
8620.000000, 91.851, -115.6589
8750.000000, 90.517, -114.9470
8850.000000, 89.545, -113.8615
9000.000000, 88.182, -111.8750
9120.000000, 87.145, -110.2203
9250.000000, 86.036, -108.6181
9380.000000, 84.894, -107.2117
9500.000000, 83.773, -106.1234
9620.000000, 82.535, -104.9780
9750.000000, 81.026, -103.1283
9880.000000, 79.359, -100.0438
10000.000000, 77.725, -95.4961
10150.000000, 75.672, -87.0103
10300.000000, 73.866, -74.9474
10440.000000, 72.730, -62.1765
10600.000000, 72.077, -49.9025
10750.000000, 71.672, -42.1396
10900.000000, 71.171, -37.1763
11060.000000, 70.370, -34.3425
11200.000000, 69.347, -33.2225
11380.000000, 67.783, -35.1220
11500.000000, 66.623, -42.7723
11720.000000, 64.795, -92.9089
11800.000000, 65.201, -127.5999
12060.000000, 70.595, 172.6834
12200.000000, 73.742, 159.5776
12410.000000, 77.322, 139.9883
12500.000000, 78.366, 130.7837
12650.000000, 79.473, 114.7899
12800.000000, 79.835, 98.4019
13150.000000, 77.618, 62.4167
13200.000000, 76.927, 58.4270
13400.000000, 73.442, 48.4961
13600.000000, 69.792, 48.5385
13800.000000, 67.119, 47.1411
14000.000000, 64.260, 36.9164
14300.000000, 57.729, -3.7377
14500.000000, 55.666, -83.6693
14750.000000, 58.715, -115.3120
15000.000000, 61.583, -123.1324
15250.000000, 63.295, -130.1689
15500.000000, 63.354, -139.0813
15750.000000, 61.296, -139.8152
16000.000000, 60.119, -103.3763
16250.000000, 63.121, -79.3185
16500.000000, 65.330, -81.3154
16750.000000, 66.076, -85.6308
17000.000000, 66.052, -87.8965
17250.000000, 65.468, -87.9578
17500.000000, 64.457, -84.0963
17750.000000, 63.413, -75.2853
18000.000000, 62.711, -62.0353
18250.000000, 62.797, -45.3783
18500.000000, 63.862, -31.0665
18750.000000, 65.212, -23.4874
19000.000000, 66.304, -20.8005
19250.000000, 67.075, -21.6266
19500.000000, 67.415, -26.9644
19750.000000, 66.840, -37.4777
20000.000000, 64.623, -50.0894
20300.000000, 59.468, -59.2787
20600.000000, 52.217, -48.4607
20900.000000, 47.336, 94.5325
21200.000000, 49.734, 140.0520
21400.000000, 51.422, 148.4323
21800.000000, 52.261, 157.1022
22000.000000, 51.157, 159.7833
22400.000000, 45.505, 162.6393
22700.000000, 39.189, 163.6675
23000.000000, 32.899, 159.7164
23300.000000, 29.387, 179.5782
23600.000000, 28.342, 11.6981
24000.000000, 27.677, 102.5594
