* Measurement data measured by REW V5.31
* Source: Headset (DS by VECLAN.COM), MICROPHONE (Master Volume), L, volume: 1.000. Timing signal peak level -15.8 dBFS, measurement signal peak level -15.9 dBFS
* Format: 4M Log Swept Sine, 1 sweep at -12.0 dBFS using an acoustic timing reference
* Dated: Apr 13, 2024 9:56:22 PM
* REW Settings:
*  C-weighting compensation: Off
*  Target level: 85.0 dB
* Note: ; Delay -0.0981 ms (-34 mm, -1.33 in) using estimated IR delay relative to Acoustic reference played from HEADPHONE R with no timing offset
* Measurement: Samsung Earbuds R2
* Smoothing: 1/24 octave
* Frequency Step: 1/48 octave
* Start Frequency: 1.000 Hz
*
* Freq(Hz), SPL(dB), Phase(degrees)
1.000000, 55.798, 70.9896
1.015000, 55.816, 70.6105
1.030000, 55.830, 70.2487
1.044000, 55.839, 69.9269
1.060000, 55.846, 69.5784
1.075000, 55.849, 69.2703
1.090000, 55.848, 68.9788
1.106000, 55.845, 68.6740
1.120000, 55.842, 68.3920
1.138000, 55.839, 67.9944
1.150000, 55.837, 67.7071
1.172000, 55.832, 67.1305
1.180000, 55.829, 66.9011
1.206000, 55.814, 66.1121
1.220000, 55.801, 65.6620
1.241000, 55.775, 64.9585
1.250000, 55.761, 64.6478
1.265000, 55.732, 64.1199
1.280000, 55.696, 63.5816
1.315000, 55.583, 62.3007
1.320000, 55.563, 62.1166
1.340000, 55.471, 61.3822
1.360000, 55.361, 60.6589
1.380000, 55.230, 59.9166
1.400000, 55.076, 59.1887
1.430000, 54.800, 58.1741
1.450000, 54.584, 57.5630
1.475000, 54.278, 56.8617
1.500000, 53.945, 56.1591
1.525000, 53.589, 55.4143
1.550000, 53.209, 54.6207
1.575000, 52.804, 53.7554
1.600000, 52.370, 52.8011
1.625000, 51.905, 51.7982
1.650000, 51.406, 50.7493
1.675000, 50.873, 49.6589
1.700000, 50.301, 48.5337
1.725000, 49.690, 47.3832
1.750000, 49.036, 46.2201
1.775000, 48.337, 45.0439
1.800000, 47.591, 43.8584
1.825000, 46.787, 42.7121
1.850000, 45.884, 41.5738
1.875000, 44.832, 40.3677
1.900000, 43.633, 39.0380
1.925000, 42.314, 37.5396
1.950000, 40.910, 35.8188
1.975000, 39.453, 33.7872
2.000000, 37.978, 31.3306
2.030000, 36.235, 27.6621
2.060000, 34.580, 22.8350
2.090000, 33.077, 16.1920
2.120000, 31.792, 6.5764
2.140000, 31.090, -2.4041
2.180000, 30.152, -29.5967
2.200000, 29.952, -47.7144
2.240000, 30.119, -83.2739
2.270000, 30.686, -101.9797
2.300000, 31.558, -114.2209
2.330000, 32.662, -122.4110
2.360000, 33.929, -128.1904
2.400000, 35.756, -133.7358
2.430000, 37.144, -136.8683
2.470000, 38.898, -140.1795
2.500000, 40.065, -142.2222
2.540000, 41.325, -144.5702
2.580000, 42.223, -146.7539
2.620000, 42.881, -149.0705
2.650000, 43.272, -150.8848
2.690000, 43.681, -153.3277
2.720000, 43.916, -155.1292
2.760000, 44.152, -157.4358
2.800000, 44.321, -159.6368
2.850000, 44.468, -162.1526
2.900000, 44.583, -164.3945
2.950000, 44.685, -166.4994
3.000000, 44.742, -168.8310
3.040000, 44.739, -170.9011
3.070000, 44.709, -172.5327
3.110000, 44.632, -174.7636
3.150000, 44.513, -177.0047
3.200000, 44.307, -179.7681
3.250000, 44.039, 177.6116
3.300000, 43.707, 175.1457
3.350000, 43.303, 172.5595
3.400000, 42.823, 169.5610
3.450000, 42.275, 166.1467
3.500000, 41.673, 162.3785
3.550000, 41.027, 158.3291
3.600000, 40.349, 154.0576
3.650000, 39.636, 149.6088
3.700000, 38.830, 144.6789
3.750000, 37.867, 138.5559
3.820000, 36.355, 126.6309
3.870000, 35.300, 114.7739
3.950000, 33.990, 89.2036
4.000000, 33.608, 70.7448
4.060000, 33.772, 49.4077
4.120000, 34.604, 31.1765
4.180000, 35.902, 17.2087
4.250000, 37.677, 5.5800
4.310000, 39.164, -1.6106
4.370000, 40.434, -7.2073
4.440000, 41.595, -12.6824
4.500000, 42.431, -16.9043
4.550000, 43.056, -20.1229
4.620000, 43.843, -24.1650
4.680000, 44.445, -27.1829
4.750000, 45.075, -30.2504
4.820000, 45.618, -33.0791
4.870000, 45.948, -35.0558
4.940000, 46.337, -37.7244
5.000000, 46.618, -39.8682
5.080000, 46.938, -42.4236
5.150000, 47.178, -44.3726
5.220000, 47.373, -46.2142
5.300000, 47.536, -48.2350
5.380000, 47.650, -50.0933
5.450000, 47.720, -51.5341
5.520000, 47.767, -52.7628
5.600000, 47.787, -53.9976
5.700000, 47.763, -55.3573
5.800000, 47.700, -56.4706
5.900000, 47.612, -57.3035
6.000000, 47.495, -57.8727
6.080000, 47.381, -58.1810
6.150000, 47.270, -58.3400
6.220000, 47.149, -58.4182
6.300000, 47.000, -58.3951
6.400000, 46.796, -58.1967
6.500000, 46.569, -57.8050
6.600000, 46.313, -57.1976
6.700000, 46.024, -56.3896
6.800000, 45.708, -55.3231
6.900000, 45.372, -53.8926
7.000000, 45.012, -51.9844
7.100000, 44.620, -49.5583
7.200000, 44.234, -46.5440
7.300000, 43.916, -42.8777
7.400000, 43.691, -38.5022
7.500000, 43.553, -33.5173
7.620000, 43.542, -27.2333
7.750000, 43.800, -20.7824
7.880000, 44.333, -15.1238
8.000000, 44.940, -11.1261
8.120000, 45.564, -8.5361
8.250000, 46.258, -7.0236
8.380000, 46.897, -6.5858
8.500000, 47.380, -7.0444
8.620000, 47.764, -8.1603
8.750000, 48.062, -9.7579
8.850000, 48.198, -11.1746
9.000000, 48.254, -13.6185
9.120000, 48.174, -15.5476
9.250000, 47.960, -17.4131
9.380000, 47.620, -19.0645
9.500000, 47.211, -20.1487
9.620000, 46.713, -20.5568
9.750000, 46.096, -20.1783
9.880000, 45.474, -18.8087
10.000000, 44.932, -16.4558
10.150000, 44.352, -12.1972
10.300000, 44.036, -7.1949
10.440000, 44.029, -2.4504
10.600000, 44.253, 2.0594
10.750000, 44.613, 4.7593
10.900000, 45.049, 6.0857
11.060000, 45.470, 6.1671
11.200000, 45.777, 5.2971
11.380000, 46.086, 3.4381
11.500000, 46.237, 1.8757
11.720000, 46.452, -1.4808
11.800000, 46.526, -2.7999
12.060000, 46.785, -7.6167
12.200000, 46.968, -10.6917
12.410000, 47.296, -16.0374
12.500000, 47.449, -18.6923
12.650000, 47.715, -23.5995
12.800000, 47.968, -29.0900
13.150000, 48.398, -44.2745
13.200000, 48.429, -46.6606
13.400000, 48.452, -56.7433
13.600000, 48.268, -67.2969
13.800000, 47.825, -78.3387
14.000000, 47.048, -89.4976
14.300000, 44.966, -106.6318
14.500000, 42.663, -118.0101
14.750000, 38.742, -132.1722
15.000000, 36.106, 32.3636
15.250000, 40.313, 21.8768
15.500000, 44.530, 9.1622
15.750000, 47.056, -2.7430
16.000000, 48.585, -13.6791
16.250000, 49.391, -23.2802
16.500000, 49.623, -31.1930
16.750000, 49.398, -36.6885
17.000000, 48.872, -38.9764
17.250000, 48.322, -37.4675
17.500000, 48.102, -32.5286
17.750000, 48.447, -26.4934
18.000000, 49.222, -21.9360
18.250000, 50.121, -19.9005
18.500000, 50.908, -19.8660
18.750000, 51.500, -20.9413
19.000000, 51.900, -22.4046
19.250000, 52.160, -23.8000
19.500000, 52.338, -24.9368
19.750000, 52.477, -25.8355
20.000000, 52.602, -26.6413
20.299999, 52.726, -27.6915
20.600000, 52.799, -28.8295
20.900000, 52.810, -29.9078
21.200001, 52.783, -30.7517
21.400000, 52.769, -31.1526
21.799999, 52.810, -31.8031
22.000000, 52.871, -32.2475
22.400000, 53.015, -33.7521
22.700001, 53.065, -35.3085
23.000000, 53.016, -36.8378
23.299999, 52.873, -37.8440
23.600000, 52.697, -37.8715
24.000000, 52.588, -36.2467
24.299999, 52.705, -34.3379
24.700001, 53.116, -32.1003
25.000000, 53.516, -31.1513
25.400000, 54.026, -30.8021
25.799999, 54.442, -30.9323
26.200001, 54.767, -31.0781
26.500000, 54.965, -31.0696
26.900000, 55.174, -30.7871
27.200001, 55.303, -30.2931
27.600000, 55.484, -29.2377
28.000000, 55.739, -28.1189
28.500000, 56.135, -27.8490
29.000000, 56.349, -29.4193
29.500000, 56.071, -31.1996
30.000000, 55.368, -29.5607
30.400000, 55.014, -24.0806
30.700001, 55.232, -18.8453
31.100000, 56.132, -14.1400
31.500000, 57.214, -13.9756
32.000000, 58.163, -18.1824
32.500000, 58.498, -23.6514
33.000000, 58.434, -27.5840
33.500000, 58.346, -29.1904
34.000000, 58.464, -29.5558
34.500000, 58.722, -29.9702
35.000000, 58.977, -30.5084
35.500000, 59.218, -30.7164
36.000000, 59.501, -30.5598
36.500000, 59.828, -30.4147
37.000000, 60.149, -30.4918
37.500000, 60.425, -30.7025
38.200001, 60.733, -30.8542
38.700001, 60.935, -30.7465
39.500000, 61.309, -30.6378
40.000000, 61.557, -31.0602
40.599998, 61.779, -32.0504
41.200001, 61.905, -32.9648
41.799999, 62.016, -33.5687
42.500000, 62.136, -34.2269
43.099998, 62.161, -34.2517
43.700001, 62.240, -32.9631
44.400002, 62.673, -31.1250
45.000000, 63.158, -31.2541
45.500000, 63.403, -32.1807
46.200001, 63.527, -32.3951
46.799999, 63.761, -31.2412
47.500000, 64.266, -30.8905
48.200001, 64.618, -32.2397
48.700001, 64.709, -33.0346
49.400002, 64.823, -33.1656
50.000000, 65.005, -33.1542
50.799999, 65.209, -33.5674
51.500000, 65.348, -33.6005
52.200001, 65.557, -33.5323
53.000000, 65.798, -33.9463
53.799999, 65.987, -34.4006
54.500000, 66.162, -34.6878
55.200001, 66.351, -35.0109
56.000000, 66.591, -35.4493
57.000000, 66.918, -36.1019
58.000000, 67.377, -36.7122
59.000000, 67.882, -39.5247
60.000000, 67.801, -42.5010
60.799999, 67.629, -41.3788
61.500000, 67.810, -39.3254
62.200001, 68.132, -38.3393
63.000000, 68.438, -38.0396
64.000000, 68.779, -37.8914
65.000000, 69.052, -38.1797
66.000000, 69.280, -38.4979
67.000000, 69.489, -39.0753
68.000000, 69.660, -39.5383
69.000000, 69.866, -39.7844
70.000000, 70.097, -40.0627
71.000000, 70.335, -40.3568
72.000000, 70.563, -40.6860
73.000000, 70.779, -40.9636
74.000000, 70.997, -41.3234
75.000000, 71.198, -41.8195
76.199997, 71.427, -42.3938
77.500000, 71.696, -42.9905
78.800003, 71.979, -43.5961
80.000000, 72.238, -44.1827
81.199997, 72.466, -44.7188
82.500000, 72.701, -45.1010
83.800003, 72.944, -45.5377
85.000000, 73.164, -46.0538
86.199997, 73.376, -46.6102
87.500000, 73.603, -47.0844
88.500000, 73.786, -47.3970
90.000000, 74.043, -47.8653
91.199997, 74.238, -48.1800
92.500000, 74.442, -48.7381
93.800003, 74.597, -49.3260
95.000000, 74.772, -49.6731
96.199997, 74.972, -50.2692
97.500000, 75.171, -51.0050
98.800003, 75.351, -51.5527
100.000000, 75.535, -51.7943
101.500000, 75.790, -52.3168
103.000000, 76.003, -52.9059
104.400002, 76.214, -53.3884
106.000000, 76.439, -54.1610
107.500000, 76.620, -54.8500
109.000000, 76.795, -55.4635
110.599998, 76.999, -56.1771
112.000000, 77.180, -56.9281
113.800003, 77.405, -57.7770
115.000000, 77.556, -58.1613
117.199997, 77.836, -58.6163
118.000000, 77.940, -58.7307
120.599998, 78.301, -59.8699
122.000000, 78.430, -60.8064
124.099998, 78.627, -61.7596
125.000000, 78.722, -62.0833
126.500000, 78.889, -62.6373
128.000000, 79.032, -63.2897
131.500000, 79.370, -64.4955
132.000000, 79.425, -64.6814
134.000000, 79.639, -65.4545
136.000000, 79.794, -66.1304
138.000000, 79.929, -66.5794
140.000000, 80.084, -67.4055
143.000000, 80.331, -69.0551
145.000000, 80.507, -69.8566
147.500000, 80.741, -70.6366
150.000000, 80.942, -71.6973
152.500000, 81.106, -72.6911
155.000000, 81.319, -73.3866
157.500000, 81.540, -74.1974
160.000000, 81.715, -75.1915
162.500000, 81.842, -76.0769
165.000000, 81.969, -76.8441
167.500000, 82.113, -77.5583
170.000000, 82.278, -78.3302
172.500000, 82.428, -79.1472
175.000000, 82.558, -79.9401
177.500000, 82.683, -80.7711
180.000000, 82.817, -81.5550
182.500000, 82.934, -82.4244
185.000000, 83.035, -83.2820
187.500000, 83.183, -84.3081
190.000000, 83.370, -85.5268
192.500000, 83.479, -86.4077
195.000000, 83.536, -86.5637
197.500000, 83.605, -86.8571
200.000000, 83.688, -87.5363
203.000000, 83.774, -88.3138
206.000000, 83.852, -88.8882
209.000000, 83.944, -89.7067
212.000000, 84.052, -90.5313
214.000000, 84.131, -90.9999
218.000000, 84.281, -91.8713
220.000000, 84.356, -92.2960
224.000000, 84.491, -93.2359
227.000000, 84.572, -93.9243
230.000000, 84.650, -94.6547
233.000000, 84.738, -95.4020
236.000000, 84.839, -96.0283
240.000000, 84.955, -96.7856
243.000000, 85.009, -97.5443
247.000000, 85.091, -98.6027
250.000000, 85.158, -99.3312
254.000000, 85.225, -100.1055
258.000000, 85.288, -100.9183
262.000000, 85.341, -101.7592
265.000000, 85.378, -102.3027
269.000000, 85.416, -103.0020
272.000000, 85.432, -103.5487
276.000000, 85.457, -104.2081
280.000000, 85.476, -104.8771
285.000000, 85.486, -105.5381
290.000000, 85.532, -105.9974
295.000000, 85.577, -106.2913
300.000000, 85.618, -106.5560
304.000000, 85.673, -106.6290
307.000000, 85.715, -106.6711
311.000000, 85.766, -106.8562
315.000000, 85.818, -107.1132
320.000000, 85.882, -107.5494
325.000000, 85.965, -107.8478
330.000000, 86.045, -108.0802
335.000000, 86.107, -108.3575
340.000000, 86.163, -108.6414
345.000000, 86.215, -108.9481
350.000000, 86.271, -109.2335
355.000000, 86.339, -109.4565
360.000000, 86.404, -109.6731
365.000000, 86.462, -109.9578
370.000000, 86.514, -110.2111
375.000000, 86.565, -110.4283
382.000000, 86.632, -110.6806
387.000000, 86.680, -110.9200
395.000000, 86.745, -111.2692
400.000000, 86.783, -111.4606
406.000000, 86.839, -111.7334
412.000000, 86.900, -112.0684
418.000000, 86.945, -112.3074
425.000000, 86.967, -112.5728
431.000000, 86.966, -112.7640
437.000000, 86.960, -112.6869
444.000000, 87.005, -112.2159
450.000000, 87.107, -112.0430
455.000000, 87.194, -112.1957
462.000000, 87.281, -112.5708
468.000000, 87.336, -112.8577
475.000000, 87.387, -113.1012
482.000000, 87.413, -113.2938
487.000000, 87.422, -113.4537
494.000000, 87.432, -113.7004
500.000000, 87.440, -113.9300
508.000000, 87.424, -114.2107
515.000000, 87.367, -114.3369
522.000000, 87.267, -114.2880
530.000000, 87.093, -113.6667
538.000000, 86.902, -111.4759
545.000000, 86.961, -107.8895
552.000000, 87.416, -104.7771
560.000000, 88.085, -104.4366
570.000000, 88.585, -106.7026
580.000000, 88.759, -108.7211
590.000000, 88.827, -110.0042
600.000000, 88.868, -110.8004
608.000000, 88.897, -111.2213
615.000000, 88.922, -111.4907
622.000000, 88.948, -111.6952
630.000000, 88.978, -111.8618
640.000000, 89.015, -112.0396
650.000000, 89.056, -112.1914
660.000000, 89.097, -112.3007
670.000000, 89.138, -112.3561
680.000000, 89.181, -112.3555
690.000000, 89.221, -112.3288
700.000000, 89.258, -112.3167
710.000000, 89.302, -112.2704
720.000000, 89.351, -112.1853
730.000000, 89.401, -112.0615
740.000000, 89.448, -111.9420
750.000000, 89.490, -111.8146
762.000000, 89.539, -111.6483
775.000000, 89.600, -111.4548
788.000000, 89.660, -111.2103
800.000000, 89.715, -111.0027
812.000000, 89.772, -110.7917
825.000000, 89.832, -110.5691
838.000000, 89.890, -110.3195
850.000000, 89.948, -110.0653
862.000000, 90.006, -109.8149
875.000000, 90.063, -109.5553
885.000000, 90.108, -109.3199
900.000000, 90.177, -108.9971
912.000000, 90.230, -108.7546
925.000000, 90.291, -108.4784
938.000000, 90.351, -108.2078
950.000000, 90.406, -107.9124
962.000000, 90.458, -107.6232
975.000000, 90.509, -107.3010
988.000000, 90.558, -106.9813
1000.000000, 90.607, -106.6362
1015.000000, 90.672, -106.2037
1030.000000, 90.733, -105.8312
1044.000000, 90.790, -105.4360
1060.000000, 90.858, -104.9276
1075.000000, 90.927, -104.4140
1090.000000, 91.002, -103.9155
1106.000000, 91.094, -103.4015
1120.000000, 91.188, -102.9491
1138.000000, 91.309, -102.3611
1150.000000, 91.391, -101.9328
1172.000000, 91.548, -101.1093
1180.000000, 91.608, -100.8104
1206.000000, 91.822, -99.9153
1220.000000, 91.944, -99.4763
1241.000000, 92.132, -98.8356
1250.000000, 92.216, -98.5626
1265.000000, 92.361, -98.1198
1280.000000, 92.515, -97.6903
1315.000000, 92.886, -96.9283
1320.000000, 92.939, -96.8349
1340.000000, 93.145, -96.5333
1360.000000, 93.339, -96.2724
1380.000000, 93.528, -96.1139
1400.000000, 93.730, -96.0314
1430.000000, 94.032, -96.0791
1450.000000, 94.228, -96.3328
1475.000000, 94.463, -96.6946
1500.000000, 94.678, -97.1316
1525.000000, 94.873, -97.6772
1550.000000, 95.040, -98.2385
1575.000000, 95.185, -98.8226
1600.000000, 95.308, -99.4326
1625.000000, 95.408, -99.9894
1650.000000, 95.491, -100.4600
1675.000000, 95.567, -100.8921
1700.000000, 95.638, -101.2663
1725.000000, 95.698, -101.5641
1750.000000, 95.754, -101.7754
1775.000000, 95.814, -101.9423
1800.000000, 95.878, -102.0656
1825.000000, 95.942, -102.1689
1850.000000, 96.012, -102.2794
1875.000000, 96.087, -102.4071
1900.000000, 96.167, -102.5635
1925.000000, 96.248, -102.7469
1950.000000, 96.329, -102.9731
1975.000000, 96.409, -103.2694
2000.000000, 96.490, -103.6339
2030.000000, 96.583, -104.1648
2060.000000, 96.658, -104.7636
2090.000000, 96.713, -105.4396
2120.000000, 96.749, -106.2057
2140.000000, 96.761, -106.7582
2180.000000, 96.751, -107.8373
2200.000000, 96.726, -108.3506
2240.000000, 96.653, -109.3081
2270.000000, 96.573, -109.9594
2300.000000, 96.475, -110.5327
2330.000000, 96.361, -111.0439
2360.000000, 96.232, -111.4879
2400.000000, 96.037, -111.9709
2430.000000, 95.877, -112.1838
2470.000000, 95.642, -112.2764
2500.000000, 95.453, -112.2162
2540.000000, 95.170, -111.8926
2580.000000, 94.864, -110.8608
2620.000000, 94.666, -109.2431
2650.000000, 94.572, -108.3938
2690.000000, 94.411, -107.4432
2720.000000, 94.269, -106.6251
2760.000000, 94.080, -105.2906
2800.000000, 93.906, -103.7579
2850.000000, 93.714, -101.6877
2900.000000, 93.551, -99.4424
2950.000000, 93.422, -97.0400
3000.000000, 93.332, -94.5742
3040.000000, 93.282, -92.5886
3070.000000, 93.258, -91.0840
3110.000000, 93.247, -89.0786
3150.000000, 93.256, -87.1110
3200.000000, 93.287, -84.7091
3250.000000, 93.345, -82.3687
3300.000000, 93.426, -80.0920
3350.000000, 93.525, -77.9464
3400.000000, 93.641, -75.8792
3450.000000, 93.782, -73.9144
3500.000000, 93.941, -72.1438
3550.000000, 94.102, -70.4860
3600.000000, 94.269, -68.9802
3650.000000, 94.437, -67.6030
3700.000000, 94.598, -66.3126
3750.000000, 94.759, -65.0876
3820.000000, 94.980, -63.5680
3870.000000, 95.124, -62.5743
3950.000000, 95.353, -61.1276
4000.000000, 95.476, -60.3384
4060.000000, 95.617, -59.3729
4120.000000, 95.753, -58.5511
4180.000000, 95.860, -57.7378
4250.000000, 95.986, -56.7297
4310.000000, 96.080, -55.8935
4370.000000, 96.170, -54.9672
4440.000000, 96.283, -53.9646
4500.000000, 96.389, -53.1659
4550.000000, 96.483, -52.6388
4620.000000, 96.577, -52.1035
4680.000000, 96.632, -51.6646
4750.000000, 96.649, -51.1060
4820.000000, 96.646, -50.0216
4870.000000, 96.693, -49.0666
4940.000000, 96.809, -48.0594
5000.000000, 96.880, -47.5043
5080.000000, 96.937, -46.4196
5150.000000, 97.060, -45.0931
5220.000000, 97.284, -44.1298
5300.000000, 97.569, -43.9167
5380.000000, 97.804, -44.5094
5450.000000, 97.945, -45.3893
5520.000000, 98.024, -46.5192
5600.000000, 98.023, -47.9135
5700.000000, 97.869, -49.4785
5800.000000, 97.620, -49.9080
5900.000000, 97.513, -49.6075
6000.000000, 97.500, -50.4380
6080.000000, 97.371, -51.8010
6150.000000, 97.145, -52.8276
6220.000000, 96.857, -53.4434
6300.000000, 96.512, -53.5213
6400.000000, 96.107, -53.1696
6500.000000, 95.711, -52.5362
6600.000000, 95.334, -51.4926
6700.000000, 95.021, -50.1754
6800.000000, 94.776, -48.9105
6900.000000, 94.587, -47.8524
7000.000000, 94.425, -47.1503
7100.000000, 94.219, -46.4758
7200.000000, 94.051, -45.4848
7300.000000, 93.947, -44.8210
7400.000000, 93.843, -44.6541
7500.000000, 93.728, -44.8824
7620.000000, 93.571, -45.8800
7750.000000, 93.300, -47.8054
7880.000000, 92.769, -50.1819
8000.000000, 92.045, -52.2585
8120.000000, 91.143, -53.8275
8250.000000, 90.005, -54.6516
8380.000000, 88.755, -54.2942
8500.000000, 87.547, -52.8920
8620.000000, 86.329, -50.4392
8750.000000, 85.018, -46.9280
8850.000000, 84.009, -43.6083
9000.000000, 82.491, -37.3612
9120.000000, 81.325, -30.6273
9250.000000, 80.326, -21.4220
9380.000000, 79.836, -12.0145
9500.000000, 79.748, -5.6974
9620.000000, 79.695, -2.2898
9750.000000, 79.409, -0.7309
9880.000000, 78.819, 0.1168
10000.000000, 78.037, 1.1523
10150.000000, 76.815, 3.1903
10300.000000, 75.363, 6.5929
10440.000000, 73.915, 11.8043
10600.000000, 72.391, 19.6988
10750.000000, 71.307, 27.6663
10900.000000, 70.655, 32.4666
11060.000000, 69.902, 30.2928
11200.000000, 68.430, 22.5468
11380.000000, 64.760, 8.4833
11500.000000, 61.657, -6.3792
11720.000000, 61.341, -61.3557
11800.000000, 63.560, -74.6051
12060.000000, 70.745, -95.4977
12200.000000, 73.428, -105.8950
12410.000000, 75.718, -121.4462
12500.000000, 76.208, -126.9680
12650.000000, 76.635, -134.0153
12800.000000, 76.759, -138.7216
13150.000000, 76.553, -142.3479
13200.000000, 76.528, -142.4224
13400.000000, 76.354, -142.7820
13600.000000, 75.931, -142.4275
13800.000000, 75.333, -139.7777
14000.000000, 75.000, -134.7014
14300.000000, 75.292, -129.8379
14500.000000, 75.281, -131.0269
14750.000000, 74.473, -132.3696
15000.000000, 73.405, -130.8234
15250.000000, 72.295, -129.5095
15500.000000, 70.717, -126.9038
15750.000000, 68.950, -119.7792
16000.000000, 67.506, -108.7823
16250.000000, 66.594, -97.1960
16500.000000, 65.931, -88.1041
16750.000000, 64.914, -80.7960
17000.000000, 63.421, -69.5259
17250.000000, 62.346, -52.9685
17500.000000, 61.954, -37.9908
17750.000000, 61.629, -25.9775
18000.000000, 61.075, -14.2173
18250.000000, 60.437, -0.6755
18500.000000, 59.958, 14.4495
18750.000000, 59.748, 30.1882
19000.000000, 59.861, 45.2200
19250.000000, 60.169, 57.4967
19500.000000, 60.364, 65.7655
19750.000000, 60.141, 69.9180
20000.000000, 59.099, 70.2625
20300.000000, 56.045, 69.5497
20600.000000, 50.998, 92.9802
20900.000000, 48.010, 158.3724
21200.000000, 47.402, -175.5753
21400.000000, 46.712, -163.3172
21800.000000, 44.633, -135.2897
22000.000000, 43.103, -120.7147
22400.000000, 37.955, -98.2122
22700.000000, 33.270, -94.1089
23000.000000, 30.149, -111.5698
23300.000000, 28.854, -115.1583
23600.000000, 28.270, -107.9822
24000.000000, 27.757, 50.9453
