* Measurement data measured by REW V5.31
* Source: Headset (DS by VECLAN.COM), MICROPHONE (Master Volume), L, volume: 0.720. Timing signal peak level -15.2 dBFS, measurement signal peak level -12.4 dBFS
* Format: 4M Log Swept Sine, 1 sweep at -12.0 dBFS using an acoustic timing reference
* Dated: Apr 20, 2024 10:32:12 PM
* REW Settings:
*  C-weighting compensation: Off
*  Target level: 75.0 dB
* Note: ; Delay -0.0935 ms (-32 mm, -1.26 in) using estimated IR delay relative to Acoustic reference played from HEADPHONE L with no timing offset
* Measurement: Samsung Earbuds L2
* Smoothing: 1/24 octave
* Frequency Step: 1/48 octave
* Start Frequency: 1.000 Hz
*
* Freq(Hz), SPL(dB), Phase(degrees)
1.000000, 59.885, -80.2207
1.015000, 59.746, -81.8981
1.030000, 59.605, -83.5339
1.044000, 59.471, -85.0150
1.060000, 59.316, -86.6446
1.075000, 59.167, -88.1034
1.090000, 59.015, -89.4919
1.106000, 58.850, -90.9166
1.120000, 58.702, -92.1640
1.138000, 58.509, -93.8146
1.150000, 58.378, -94.9546
1.172000, 58.133, -97.1506
1.180000, 58.042, -97.9916
1.206000, 57.742, -100.8745
1.220000, 57.577, -102.5304
1.241000, 57.326, -105.1623
1.250000, 57.216, -106.3469
1.265000, 57.033, -108.3987
1.280000, 56.846, -110.5478
1.315000, 56.404, -115.9260
1.320000, 56.340, -116.7326
1.340000, 56.081, -120.0402
1.360000, 55.820, -123.4501
1.380000, 55.555, -126.9579
1.400000, 55.287, -130.4867
1.430000, 54.881, -135.6582
1.450000, 54.606, -138.9388
1.475000, 54.253, -142.8611
1.500000, 53.873, -146.8595
1.525000, 53.462, -151.1400
1.550000, 53.026, -155.7842
1.575000, 52.574, -160.8642
1.600000, 52.113, -166.4241
1.625000, 51.651, -172.4190
1.650000, 51.195, -178.8004
1.675000, 50.754, 174.5284
1.700000, 50.335, 167.7063
1.725000, 49.946, 160.8961
1.750000, 49.596, 154.2582
1.775000, 49.291, 147.9070
1.800000, 49.041, 141.9055
1.825000, 48.851, 136.2626
1.850000, 48.725, 130.7050
1.875000, 48.658, 124.8791
1.900000, 48.644, 118.7217
1.925000, 48.676, 112.3334
1.950000, 48.748, 105.8670
1.975000, 48.854, 99.4682
2.000000, 48.988, 93.2673
2.030000, 49.177, 86.2867
2.060000, 49.386, 79.9053
2.090000, 49.605, 74.1461
2.120000, 49.823, 68.9683
2.140000, 49.964, 65.8005
2.180000, 50.219, 59.9685
2.200000, 50.334, 57.1782
2.240000, 50.562, 51.4650
2.270000, 50.744, 46.9723
2.300000, 50.934, 42.4007
2.330000, 51.131, 37.8618
2.360000, 51.333, 33.4486
2.400000, 51.602, 27.8270
2.430000, 51.802, 23.8853
2.470000, 52.059, 19.0240
2.500000, 52.242, 15.6586
2.540000, 52.468, 11.4790
2.580000, 52.673, 7.4328
2.620000, 52.863, 3.1804
2.650000, 52.998, -0.1451
2.690000, 53.170, -4.6537
2.720000, 53.291, -8.0127
2.760000, 53.443, -12.3627
2.800000, 53.582, -16.5303
2.850000, 53.739, -21.3589
2.900000, 53.874, -25.7487
2.950000, 53.989, -29.8882
3.000000, 54.085, -34.2209
3.040000, 54.148, -37.8660
3.070000, 54.187, -40.6461
3.110000, 54.228, -44.3405
3.150000, 54.254, -47.9454
3.200000, 54.266, -52.2502
3.250000, 54.253, -56.2279
3.300000, 54.216, -59.8927
3.350000, 54.157, -63.5455
3.400000, 54.080, -67.4426
3.450000, 53.981, -71.5083
3.500000, 53.854, -75.5965
3.550000, 53.694, -79.5616
3.600000, 53.498, -83.2933
3.650000, 53.264, -86.7021
3.700000, 53.002, -89.9342
3.750000, 52.727, -93.2871
3.820000, 52.299, -98.3411
3.870000, 51.935, -102.0862
3.950000, 51.195, -107.9064
4.000000, 50.597, -111.1923
4.060000, 49.691, -114.7012
4.120000, 48.535, -118.1417
4.180000, 47.187, -121.7994
4.250000, 45.519, -126.3613
4.310000, 44.153, -130.2394
4.370000, 42.967, -133.5374
4.440000, 41.836, -135.7623
4.500000, 40.978, -135.3015
4.550000, 40.348, -129.5375
4.620000, 39.708, -31.6496
4.680000, 39.506, 9.6360
4.750000, 39.868, 12.2175
4.820000, 41.066, 9.6511
4.870000, 42.390, 7.1167
4.940000, 44.596, 3.4921
5.000000, 46.523, 0.4781
5.080000, 48.746, -3.4769
5.150000, 50.173, -7.1076
5.220000, 51.201, -11.0981
5.300000, 52.062, -15.8009
5.380000, 52.716, -20.2975
5.450000, 53.205, -23.9910
5.520000, 53.658, -27.5897
5.600000, 54.098, -31.9149
5.700000, 54.507, -37.4873
5.800000, 54.785, -42.7337
5.900000, 54.959, -47.5861
6.000000, 55.023, -52.5629
6.080000, 54.992, -56.6057
6.150000, 54.905, -59.9609
6.220000, 54.764, -63.0493
6.300000, 54.539, -66.3699
6.400000, 54.160, -70.5074
6.500000, 53.655, -74.4401
6.600000, 53.002, -77.7053
6.700000, 52.188, -80.2296
6.800000, 51.228, -82.1027
6.900000, 50.149, -82.9899
7.000000, 48.916, -82.1447
7.100000, 47.453, -78.7029
7.200000, 45.993, -71.8820
7.300000, 45.018, -61.3772
7.400000, 44.899, -48.0340
7.500000, 45.522, -34.4939
7.620000, 46.708, -22.3832
7.750000, 48.085, -15.3883
7.880000, 49.546, -12.5773
8.000000, 50.802, -11.9640
8.120000, 51.793, -12.4899
8.250000, 52.596, -13.9606
8.380000, 53.213, -15.7305
8.500000, 53.655, -17.3601
8.620000, 53.979, -19.0268
8.750000, 54.234, -20.6688
8.850000, 54.384, -21.6976
9.000000, 54.536, -22.9320
9.120000, 54.623, -23.6674
9.250000, 54.708, -24.1710
9.380000, 54.783, -24.4194
9.500000, 54.854, -24.5286
9.620000, 54.936, -24.5638
9.750000, 55.028, -24.5386
9.880000, 55.108, -24.5146
10.000000, 55.165, -24.5233
10.150000, 55.208, -24.5671
10.300000, 55.211, -24.5110
10.440000, 55.175, -24.3378
10.600000, 55.109, -23.8578
10.750000, 55.035, -23.0094
10.900000, 54.975, -21.7900
11.060000, 54.973, -20.1356
11.200000, 55.037, -18.4871
11.380000, 55.228, -16.4475
11.500000, 55.428, -15.2831
11.720000, 55.885, -13.9234
11.800000, 56.065, -13.7636
12.060000, 56.626, -14.3644
12.200000, 56.864, -15.3570
12.410000, 57.096, -17.3461
12.500000, 57.138, -18.2568
12.650000, 57.128, -19.7806
12.800000, 57.025, -21.0718
13.150000, 56.505, -22.1568
13.200000, 56.419, -22.0049
13.400000, 56.100, -20.4716
13.600000, 55.946, -17.7581
13.800000, 56.053, -14.4888
14.000000, 56.415, -11.8073
14.300000, 57.244, -10.3544
14.500000, 57.782, -11.2892
14.750000, 58.275, -13.9617
15.000000, 58.483, -17.5154
15.250000, 58.391, -20.9897
15.500000, 58.049, -23.3851
15.750000, 57.590, -23.9559
16.000000, 57.242, -22.4415
16.250000, 57.241, -19.9398
16.500000, 57.625, -18.1956
16.750000, 58.221, -18.7114
17.000000, 58.759, -21.7275
17.250000, 59.051, -26.6927
17.500000, 58.972, -32.7852
17.750000, 58.447, -38.9844
18.000000, 57.411, -44.1226
18.250000, 55.849, -46.2869
18.500000, 53.952, -42.1061
18.750000, 52.700, -28.3252
19.000000, 53.221, -10.6162
19.250000, 55.012, -1.2470
19.500000, 56.901, -0.2640
19.750000, 58.334, -3.8497
20.000000, 59.286, -9.4227
20.299999, 59.890, -16.7831
20.600000, 60.037, -23.5132
20.900000, 59.874, -28.6637
21.200001, 59.572, -31.6895
21.400000, 59.385, -32.4796
21.799999, 59.227, -31.6439
22.000000, 59.295, -30.4192
22.400000, 59.745, -27.2935
22.700001, 60.369, -24.9875
23.000000, 61.236, -23.5380
23.299999, 62.264, -23.7636
23.600000, 63.301, -26.0548
24.000000, 64.410, -31.9667
24.299999, 64.884, -37.7728
24.700001, 64.912, -45.7321
25.000000, 64.457, -50.5363
25.400000, 63.355, -52.9294
25.799999, 62.296, -48.3724
26.200001, 62.252, -39.6675
26.500000, 62.874, -35.3118
26.900000, 63.753, -34.5914
27.200001, 64.071, -36.2187
27.600000, 63.963, -38.0654
28.000000, 63.578, -36.8483
28.500000, 63.653, -31.5352
29.000000, 64.541, -29.0784
29.500000, 65.195, -32.1395
30.000000, 64.996, -36.2026
30.400000, 64.380, -36.3137
30.700001, 64.006, -33.3657
31.100000, 64.136, -27.2196
31.500000, 64.969, -23.0854
32.000000, 66.103, -23.4822
32.500000, 66.728, -27.0698
33.000000, 66.886, -30.3593
33.500000, 66.887, -32.1210
34.000000, 66.892, -33.0346
34.500000, 66.806, -33.5867
35.000000, 66.570, -32.6579
35.500000, 66.482, -29.2654
36.000000, 66.913, -25.4230
36.500000, 67.669, -24.5206
37.000000, 68.213, -26.7263
37.500000, 68.300, -29.3713
38.200001, 68.179, -29.0074
38.700001, 68.627, -26.9863
39.500000, 69.925, -29.3713
40.000000, 70.323, -34.0051
40.599998, 70.174, -38.3892
41.200001, 69.850, -38.2699
41.799999, 70.055, -35.0481
42.500000, 70.863, -33.3956
43.099998, 71.435, -34.9545
43.700001, 71.614, -37.4151
44.400002, 71.367, -38.3723
45.000000, 71.206, -35.9257
45.500000, 71.490, -33.3177
46.200001, 72.257, -33.9177
46.799999, 72.527, -38.1627
47.500000, 72.116, -42.0817
48.200001, 71.715, -41.1100
48.700001, 71.887, -39.5173
49.400002, 72.378, -39.5196
50.000000, 72.627, -40.2956
50.799999, 72.900, -39.7563
51.500000, 73.188, -38.5154
52.200001, 73.428, -36.3037
53.000000, 73.911, -33.6495
53.799999, 74.212, -34.0540
54.500000, 73.906, -34.1123
55.200001, 73.664, -32.7904
56.000000, 73.436, -35.7596
57.000000, 71.799, -31.3960
58.000000, 73.591, -3.1643
59.000000, 75.848, -18.8964
60.000000, 75.164, -36.8773
60.799999, 74.642, -39.3994
61.500000, 75.232, -40.1077
62.200001, 75.790, -42.9177
63.000000, 76.037, -44.8936
64.000000, 76.250, -43.6908
65.000000, 76.558, -40.7628
66.000000, 76.873, -38.7647
67.000000, 77.050, -36.9313
68.000000, 77.449, -35.9672
69.000000, 77.877, -38.0328
70.000000, 78.126, -41.6855
71.000000, 78.172, -44.7168
72.000000, 78.332, -45.3958
73.000000, 78.787, -45.8159
74.000000, 79.257, -46.5970
75.000000, 79.746, -48.0492
76.199997, 79.819, -50.8044
77.500000, 79.606, -48.5739
78.800003, 79.945, -45.9609
80.000000, 80.232, -45.6270
81.199997, 80.330, -46.0250
82.500000, 80.326, -45.5676
83.800003, 80.549, -45.3881
85.000000, 80.804, -46.6863
86.199997, 81.086, -47.8523
87.500000, 81.615, -48.5667
88.500000, 82.187, -49.8851
90.000000, 82.517, -54.1337
91.199997, 82.292, -53.8575
92.500000, 82.392, -51.3748
93.800003, 82.616, -50.6857
95.000000, 82.739, -51.0776
96.199997, 82.791, -51.4529
97.500000, 82.926, -51.4840
98.800003, 83.151, -51.9244
100.000000, 83.337, -52.5569
101.500000, 83.579, -53.3700
103.000000, 83.775, -54.6051
104.400002, 83.942, -55.2562
106.000000, 84.227, -55.5436
107.500000, 84.510, -55.8324
109.000000, 84.716, -56.0942
110.599998, 84.875, -56.5296
112.000000, 85.018, -57.3787
113.800003, 85.183, -59.0975
115.000000, 85.305, -59.4579
117.199997, 85.757, -57.8952
118.000000, 85.986, -56.9585
120.599998, 86.735, -57.5713
122.000000, 86.644, -59.9864
124.099998, 86.420, -61.9316
125.000000, 86.438, -62.5109
126.500000, 86.619, -63.5010
128.000000, 86.837, -64.5920
131.500000, 87.125, -65.9011
132.000000, 87.161, -66.0552
134.000000, 87.339, -66.9383
136.000000, 87.590, -68.1134
138.000000, 87.813, -69.3995
140.000000, 87.962, -69.9998
143.000000, 88.186, -70.6556
145.000000, 88.346, -71.2433
147.500000, 88.548, -72.1626
150.000000, 88.742, -73.1036
152.500000, 88.945, -74.0265
155.000000, 89.138, -74.8884
157.500000, 89.313, -76.0326
160.000000, 89.463, -77.6222
162.500000, 89.598, -78.9084
165.000000, 89.778, -79.2695
167.500000, 89.927, -79.6936
170.000000, 90.036, -80.5002
172.500000, 90.169, -81.8768
175.000000, 90.337, -83.1205
177.500000, 90.509, -83.6937
180.000000, 90.632, -83.9495
182.500000, 90.705, -84.3073
185.000000, 90.781, -85.1787
187.500000, 90.896, -86.1727
190.000000, 91.058, -87.0478
192.500000, 91.204, -87.7761
195.000000, 91.322, -88.6061
197.500000, 91.388, -89.5941
200.000000, 91.443, -90.3407
203.000000, 91.528, -91.2527
206.000000, 91.609, -92.2015
209.000000, 91.698, -93.1158
212.000000, 91.781, -93.9672
214.000000, 91.828, -94.4853
218.000000, 91.918, -95.4309
220.000000, 91.973, -95.8783
224.000000, 92.090, -96.9164
227.000000, 92.159, -97.8223
230.000000, 92.200, -98.7284
233.000000, 92.245, -99.6215
236.000000, 92.333, -100.6243
240.000000, 92.415, -101.8788
243.000000, 92.395, -102.0864
247.000000, 92.389, -102.2894
250.000000, 92.394, -102.6927
254.000000, 92.422, -103.4041
258.000000, 92.494, -103.9927
262.000000, 92.534, -104.3732
265.000000, 92.555, -104.7573
269.000000, 92.626, -105.3530
272.000000, 92.666, -105.6200
276.000000, 92.698, -105.8705
280.000000, 92.741, -106.2331
285.000000, 92.805, -106.7153
290.000000, 92.877, -106.7662
295.000000, 92.936, -106.9969
300.000000, 93.010, -107.4154
304.000000, 93.062, -107.8192
307.000000, 93.097, -108.0998
311.000000, 93.144, -108.4043
315.000000, 93.193, -108.6971
320.000000, 93.255, -109.0483
325.000000, 93.315, -109.3675
330.000000, 93.365, -109.6854
335.000000, 93.427, -109.9509
340.000000, 93.501, -110.2819
345.000000, 93.563, -110.6092
350.000000, 93.618, -110.8403
355.000000, 93.668, -111.1229
360.000000, 93.709, -111.4333
365.000000, 93.767, -111.7089
370.000000, 93.821, -111.9678
375.000000, 93.862, -112.0863
382.000000, 93.913, -112.3550
387.000000, 93.955, -112.7211
395.000000, 94.046, -113.0846
400.000000, 94.091, -113.3788
406.000000, 94.139, -113.8363
412.000000, 94.217, -114.1843
418.000000, 94.287, -114.5988
425.000000, 94.354, -115.2408
431.000000, 94.392, -116.1640
437.000000, 94.350, -117.4955
444.000000, 94.097, -118.3740
450.000000, 93.834, -117.3097
455.000000, 93.769, -115.7137
462.000000, 93.878, -114.1198
468.000000, 94.009, -113.5997
475.000000, 94.146, -113.6000
482.000000, 94.243, -113.7173
487.000000, 94.299, -113.7219
494.000000, 94.380, -113.7053
500.000000, 94.430, -113.7087
508.000000, 94.482, -113.6570
515.000000, 94.537, -113.6414
522.000000, 94.597, -113.6166
530.000000, 94.662, -113.5549
538.000000, 94.707, -113.5490
545.000000, 94.737, -113.6162
552.000000, 94.772, -113.5782
560.000000, 94.818, -113.4957
570.000000, 94.865, -113.4789
580.000000, 94.925, -113.2007
590.000000, 94.989, -112.9896
600.000000, 95.043, -113.0237
608.000000, 95.075, -112.9307
615.000000, 95.104, -112.7983
622.000000, 95.136, -112.6544
630.000000, 95.167, -112.4820
640.000000, 95.195, -112.3141
650.000000, 95.230, -112.1432
660.000000, 95.266, -111.9129
670.000000, 95.288, -111.5634
680.000000, 95.312, -111.2450
690.000000, 95.345, -111.1154
700.000000, 95.381, -110.9894
710.000000, 95.417, -110.6999
720.000000, 95.452, -110.3166
730.000000, 95.486, -109.9860
740.000000, 95.522, -109.6522
750.000000, 95.561, -109.3809
762.000000, 95.590, -108.9670
775.000000, 95.609, -108.4428
788.000000, 95.646, -108.1589
800.000000, 95.678, -107.6425
812.000000, 95.714, -107.1346
825.000000, 95.742, -106.7220
838.000000, 95.776, -106.2576
850.000000, 95.816, -105.7893
862.000000, 95.838, -105.3774
875.000000, 95.857, -104.8564
885.000000, 95.881, -104.3590
900.000000, 95.922, -103.5843
912.000000, 95.951, -102.9972
925.000000, 95.969, -102.3719
938.000000, 95.983, -101.7540
950.000000, 96.008, -101.1631
962.000000, 96.028, -100.5602
975.000000, 96.042, -99.7839
988.000000, 96.060, -99.0037
1000.000000, 96.085, -98.3588
1015.000000, 96.119, -97.4621
1030.000000, 96.150, -96.5999
1044.000000, 96.166, -95.7484
1060.000000, 96.187, -94.6284
1075.000000, 96.209, -93.6240
1090.000000, 96.239, -92.6218
1106.000000, 96.296, -91.4659
1120.000000, 96.355, -90.4031
1138.000000, 96.424, -89.0568
1150.000000, 96.476, -88.1284
1172.000000, 96.585, -86.4593
1180.000000, 96.627, -85.8473
1206.000000, 96.758, -83.7438
1220.000000, 96.834, -82.5898
1241.000000, 96.965, -80.7429
1250.000000, 97.025, -79.9330
1265.000000, 97.130, -78.6123
1280.000000, 97.242, -77.2974
1315.000000, 97.530, -74.0814
1320.000000, 97.570, -73.6090
1340.000000, 97.736, -71.7653
1360.000000, 97.920, -69.9267
1380.000000, 98.113, -67.9786
1400.000000, 98.325, -66.0291
1430.000000, 98.677, -63.1989
1450.000000, 98.933, -61.3164
1475.000000, 99.281, -58.9365
1500.000000, 99.670, -56.5403
1525.000000, 100.082, -54.2754
1550.000000, 100.528, -52.1439
1575.000000, 100.990, -50.3129
1600.000000, 101.461, -48.4906
1625.000000, 101.984, -46.7529
1650.000000, 102.538, -45.2809
1675.000000, 103.111, -44.0037
1700.000000, 103.702, -42.9846
1725.000000, 104.294, -42.3778
1750.000000, 104.891, -42.0073
1775.000000, 105.503, -41.9506
1800.000000, 106.102, -42.2046
1825.000000, 106.697, -42.7173
1850.000000, 107.284, -43.6348
1875.000000, 107.832, -44.8975
1900.000000, 108.346, -46.2875
1925.000000, 108.841, -47.8696
1950.000000, 109.301, -49.6847
1975.000000, 109.724, -51.6638
2000.000000, 110.114, -53.7573
2030.000000, 110.534, -56.3755
2060.000000, 110.908, -59.0629
2090.000000, 111.236, -61.8192
2120.000000, 111.517, -64.6166
2140.000000, 111.685, -66.5054
2180.000000, 111.969, -70.2291
2200.000000, 112.086, -72.0825
2240.000000, 112.269, -75.7222
2270.000000, 112.368, -78.4170
2300.000000, 112.435, -81.1077
2330.000000, 112.466, -83.7260
2360.000000, 112.465, -86.2524
2400.000000, 112.412, -89.4875
2430.000000, 112.341, -91.7299
2470.000000, 112.207, -94.5436
2500.000000, 112.080, -96.4987
2540.000000, 111.881, -98.8840
2580.000000, 111.651, -100.9663
2620.000000, 111.400, -102.7791
2650.000000, 111.197, -103.9575
2690.000000, 110.914, -105.2245
2720.000000, 110.696, -105.9683
2760.000000, 110.414, -106.7001
2800.000000, 110.139, -107.2831
2850.000000, 109.797, -107.7501
2900.000000, 109.463, -107.9058
2950.000000, 109.142, -107.8044
3000.000000, 108.837, -107.4836
3040.000000, 108.605, -107.0835
3070.000000, 108.438, -106.7126
3110.000000, 108.224, -106.1205
3150.000000, 108.022, -105.4346
3200.000000, 107.785, -104.4949
3250.000000, 107.563, -103.4264
3300.000000, 107.359, -102.2268
3350.000000, 107.174, -100.9749
3400.000000, 107.009, -99.6263
3450.000000, 106.865, -98.2341
3500.000000, 106.740, -96.8271
3550.000000, 106.627, -95.3671
3600.000000, 106.524, -93.8923
3650.000000, 106.435, -92.3322
3700.000000, 106.364, -90.7104
3750.000000, 106.313, -89.0741
3820.000000, 106.263, -86.7968
3870.000000, 106.241, -85.1555
3950.000000, 106.237, -82.5636
4000.000000, 106.253, -80.9683
4060.000000, 106.288, -79.1426
4120.000000, 106.335, -77.3452
4180.000000, 106.396, -75.5840
4250.000000, 106.485, -73.6030
4310.000000, 106.573, -71.9504
4370.000000, 106.666, -70.3398
4440.000000, 106.798, -68.4590
4500.000000, 106.937, -66.9535
4550.000000, 107.073, -65.7495
4620.000000, 107.298, -64.2798
4680.000000, 107.521, -63.2817
4750.000000, 107.798, -62.4819
4820.000000, 108.090, -62.0876
4870.000000, 108.301, -62.1493
4940.000000, 108.579, -62.7460
5000.000000, 108.766, -63.7848
5080.000000, 108.869, -65.6816
5150.000000, 108.781, -67.0820
5220.000000, 108.622, -67.2845
5300.000000, 108.612, -66.3219
5380.000000, 108.871, -66.0536
5450.000000, 109.133, -67.4739
5520.000000, 109.254, -70.0164
5600.000000, 109.163, -73.1956
5700.000000, 108.816, -76.5050
5800.000000, 108.332, -79.0091
5900.000000, 107.757, -80.6389
6000.000000, 107.142, -81.5216
6080.000000, 106.640, -81.7291
6150.000000, 106.190, -81.5811
6220.000000, 105.743, -81.1245
6300.000000, 105.246, -80.2349
6400.000000, 104.642, -78.6890
6500.000000, 104.074, -76.5585
6600.000000, 103.575, -73.9411
6700.000000, 103.171, -71.0845
6800.000000, 102.866, -68.2632
6900.000000, 102.655, -65.6996
7000.000000, 102.508, -63.5054
7100.000000, 102.379, -61.6972
7200.000000, 102.240, -60.3164
7300.000000, 102.027, -59.2275
7400.000000, 101.693, -57.4894
7500.000000, 101.506, -54.3013
7620.000000, 101.611, -51.7951
7750.000000, 101.729, -51.2244
7880.000000, 101.635, -51.7219
8000.000000, 101.374, -52.7118
8120.000000, 100.946, -53.9006
8250.000000, 100.307, -54.9598
8380.000000, 99.525, -55.3182
8500.000000, 98.728, -54.8932
8620.000000, 97.901, -53.6906
8750.000000, 97.009, -51.7402
8850.000000, 96.346, -49.8492
9000.000000, 95.417, -46.7166
9120.000000, 94.727, -44.1912
9250.000000, 94.022, -41.7162
9380.000000, 93.324, -39.7321
9500.000000, 92.640, -38.4855
9620.000000, 91.858, -37.7415
9750.000000, 90.822, -37.1757
9880.000000, 89.527, -36.1977
10000.000000, 88.096, -33.9113
10150.000000, 86.095, -27.9771
10300.000000, 84.131, -17.4861
10440.000000, 82.737, -3.7285
10600.000000, 82.042, 12.3596
10750.000000, 82.017, 24.1213
10900.000000, 82.243, 32.1635
11060.000000, 82.508, 36.5217
11200.000000, 82.519, 36.5538
11380.000000, 81.843, 32.2365
11500.000000, 80.895, 27.0327
11720.000000, 78.239, 5.9877
11800.000000, 77.249, -12.7827
12060.000000, 78.944, -151.1625
12200.000000, 81.175, -173.6984
12410.000000, 83.169, 168.1268
12500.000000, 83.664, 163.2179
12650.000000, 84.256, 157.1852
12800.000000, 84.641, 152.2195
13150.000000, 84.274, 141.9448
13200.000000, 84.081, 141.1219
13400.000000, 83.283, 139.6894
13600.000000, 82.588, 138.7054
13800.000000, 81.762, 136.7134
14000.000000, 80.557, 134.0166
14300.000000, 77.666, 133.3521
14500.000000, 75.258, 138.6194
14750.000000, 72.431, 152.8558
15000.000000, 70.450, 170.6203
15250.000000, 69.008, -171.7838
15500.000000, 68.116, -150.7859
15750.000000, 68.426, -130.8302
16000.000000, 69.110, -118.7880
16250.000000, 69.495, -110.5604
16500.000000, 69.568, -105.2026
16750.000000, 68.893, -101.2217
17000.000000, 67.541, -93.2795
17250.000000, 66.219, -79.8906
17500.000000, 65.349, -64.0537
17750.000000, 64.856, -48.0022
18000.000000, 64.608, -32.0089
18250.000000, 64.641, -15.7628
18500.000000, 65.151, 0.0023
18750.000000, 66.190, 12.3889
19000.000000, 67.443, 18.4516
19250.000000, 68.374, 17.1073
19500.000000, 68.528, 9.1616
19750.000000, 67.726, -4.3768
20000.000000, 65.859, -24.3152
20300.000000, 61.693, -57.6439
20600.000000, 55.182, -100.3058
20900.000000, 48.157, -118.1293
21200.000000, 46.839, -102.9912
21400.000000, 47.754, -94.8289
21800.000000, 48.552, -81.3198
22000.000000, 47.731, -77.4543
22400.000000, 43.612, -73.2287
22700.000000, 40.805, -69.7707
23000.000000, 39.456, -75.2128
23300.000000, 39.109, -18.6136
23600.000000, 39.162, -10.9742
24000.000000, 38.864, 75.5269
