* Measurement data measured by REW V5.31
* Source: Headset (DS by VECLAN.COM), MICROPHONE (Master Volume), L, volume: 0.720. Timing signal peak level -17.3 dBFS, measurement signal peak level -14.5 dBFS
* Format: 4M Log Swept Sine, 1 sweep at -12.0 dBFS using an acoustic timing reference
* Dated: Apr 20, 2024 10:38:31 PM
* REW Settings:
*  C-weighting compensation: Off
*  Target level: 75.0 dB
* Note: ; Delay -0.0309 ms (-11 mm, -0.42 in) using estimated IR delay relative to Acoustic reference played from HEADPHONE R with no timing offset
* Measurement: Samsung Earbuds R3
* Smoothing: 1/24 octave
* Frequency Step: 1/48 octave
* Start Frequency: 1.000 Hz
*
* Freq(Hz), SPL(dB), Phase(degrees)
1.000000, 62.981, -93.8205
1.015000, 63.135, -93.1177
1.030000, 63.284, -92.4547
1.044000, 63.418, -91.8721
1.060000, 63.565, -91.2496
1.075000, 63.695, -90.7081
1.090000, 63.817, -90.2080
1.106000, 63.942, -89.7206
1.120000, 64.051, -89.3324
1.138000, 64.192, -88.8821
1.150000, 64.288, -88.6095
1.172000, 64.464, -88.1668
1.180000, 64.527, -88.0270
1.206000, 64.733, -87.6178
1.220000, 64.841, -87.4226
1.241000, 64.998, -87.1564
1.250000, 65.063, -87.0506
1.265000, 65.169, -86.8835
1.280000, 65.269, -86.7260
1.315000, 65.479, -86.3842
1.320000, 65.506, -86.3372
1.340000, 65.605, -86.1518
1.360000, 65.688, -85.9661
1.380000, 65.754, -85.8156
1.400000, 65.801, -85.6740
1.430000, 65.832, -85.4445
1.450000, 65.824, -85.2785
1.475000, 65.780, -85.0723
1.500000, 65.698, -84.9142
1.525000, 65.581, -84.8189
1.550000, 65.432, -84.7758
1.575000, 65.255, -84.7929
1.600000, 65.051, -84.8744
1.625000, 64.825, -84.9683
1.650000, 64.579, -85.0616
1.675000, 64.315, -85.1417
1.700000, 64.038, -85.1955
1.725000, 63.750, -85.2098
1.750000, 63.454, -85.1710
1.775000, 63.153, -85.0820
1.800000, 62.850, -84.9454
1.825000, 62.545, -84.7212
1.850000, 62.232, -84.4377
1.875000, 61.899, -84.1402
1.900000, 61.545, -83.8391
1.925000, 61.172, -83.5261
1.950000, 60.785, -83.1884
1.975000, 60.387, -82.8287
2.000000, 59.983, -82.4472
2.030000, 59.495, -81.8900
2.060000, 59.011, -81.1922
2.090000, 58.537, -80.3116
2.120000, 58.081, -79.2006
2.140000, 57.790, -78.3059
2.180000, 57.247, -76.0929
2.200000, 56.993, -74.7539
2.240000, 56.490, -71.5198
2.270000, 56.103, -68.5724
2.300000, 55.714, -65.1462
2.330000, 55.333, -61.2265
2.360000, 54.970, -56.8254
2.400000, 54.531, -50.3534
2.430000, 54.248, -45.1630
2.470000, 53.953, -38.1063
2.500000, 53.806, -32.9725
2.540000, 53.732, -26.6843
2.580000, 53.821, -21.1938
2.620000, 54.094, -16.3496
2.650000, 54.407, -13.1001
2.690000, 54.939, -9.3399
2.720000, 55.400, -6.9618
2.760000, 56.063, -4.3582
2.800000, 56.746, -2.3979
2.850000, 57.563, -0.7173
2.900000, 58.273, 0.2048
2.950000, 58.845, 0.4709
3.000000, 59.336, 0.2186
3.040000, 59.697, -0.2325
3.070000, 59.950, -0.6685
3.110000, 60.266, -1.3442
3.150000, 60.556, -2.1004
3.200000, 60.884, -3.1619
3.250000, 61.172, -4.3240
3.300000, 61.421, -5.6082
3.350000, 61.628, -7.1195
3.400000, 61.794, -8.9074
3.450000, 61.920, -10.8571
3.500000, 62.008, -12.8578
3.550000, 62.061, -14.8332
3.600000, 62.079, -16.7591
3.650000, 62.067, -18.6170
3.700000, 62.025, -20.5168
3.750000, 61.954, -22.6086
3.820000, 61.800, -25.8565
3.870000, 61.647, -28.2664
3.950000, 61.315, -32.0015
4.000000, 61.051, -34.1623
4.060000, 60.688, -36.6172
4.120000, 60.300, -39.1987
4.180000, 59.869, -42.0088
4.250000, 59.257, -45.4675
4.310000, 58.588, -48.3464
4.370000, 57.730, -50.9128
4.440000, 56.379, -53.4569
4.500000, 54.855, -55.4705
4.550000, 53.399, -57.0997
4.620000, 51.293, -59.1853
4.680000, 49.656, -60.3617
4.750000, 48.251, -59.6995
4.820000, 47.532, -53.2952
4.870000, 47.367, -38.7415
4.940000, 47.506, 13.3765
5.000000, 47.893, 49.8788
5.080000, 48.697, 63.5175
5.150000, 49.677, 65.5420
5.220000, 51.016, 64.4623
5.300000, 52.849, 61.8699
5.380000, 54.680, 58.8530
5.450000, 56.037, 56.0606
5.520000, 57.053, 52.9951
5.600000, 57.865, 48.8968
5.700000, 58.529, 43.3466
5.800000, 58.955, 38.0563
5.900000, 59.249, 33.0166
6.000000, 59.392, 27.4992
6.080000, 59.382, 22.8553
6.150000, 59.283, 18.9628
6.220000, 59.107, 15.3616
6.300000, 58.823, 11.3787
6.400000, 58.333, 6.1092
6.500000, 57.630, 0.8361
6.600000, 56.626, -3.6549
6.700000, 55.239, -7.2648
6.800000, 53.546, -10.2274
6.900000, 51.771, -11.7416
7.000000, 50.045, -9.4136
7.100000, 48.274, 1.3312
7.200000, 46.751, 26.0431
7.300000, 46.255, 53.9904
7.400000, 47.448, 68.4734
7.500000, 49.849, 73.1051
7.620000, 52.788, 72.7908
7.750000, 54.947, 68.4424
7.880000, 56.228, 61.5539
8.000000, 56.998, 54.6073
8.120000, 57.534, 47.1096
8.250000, 57.843, 37.6697
8.380000, 57.894, 27.8571
8.500000, 57.745, 18.4773
8.620000, 57.408, 7.8125
8.750000, 56.856, -4.5528
8.850000, 56.300, -14.5294
9.000000, 55.273, -32.2210
9.120000, 54.431, -48.5336
9.250000, 53.627, -68.3245
9.380000, 52.972, -92.1557
9.500000, 52.640, -115.3329
9.620000, 52.694, -137.7300
9.750000, 53.079, -161.0073
9.880000, 53.534, 179.1978
10.000000, 53.900, 163.0977
10.150000, 54.251, 144.0268
10.300000, 54.356, 127.1064
10.440000, 54.196, 111.2566
10.600000, 53.737, 92.9308
10.750000, 53.040, 75.3522
10.900000, 52.161, 55.2383
11.060000, 51.206, 31.9135
11.200000, 50.431, 7.8796
11.380000, 49.751, -25.0653
11.500000, 49.592, -46.6779
11.720000, 49.483, -82.1168
11.800000, 49.380, -92.8818
12.060000, 48.323, -125.2560
12.200000, 46.793, -140.8978
12.410000, 44.375, -174.0402
12.500000, 44.483, 145.6541
12.650000, 46.504, 32.8920
12.800000, 49.414, 9.6191
13.150000, 55.879, -21.8157
13.200000, 56.597, -25.6148
13.400000, 58.892, -40.3242
13.600000, 60.535, -54.0071
13.800000, 61.688, -67.3218
14.000000, 62.417, -80.0004
14.300000, 62.788, -98.4486
14.500000, 62.568, -110.1693
14.750000, 61.739, -123.9824
15.000000, 60.215, -136.6797
15.250000, 57.808, -147.1460
15.500000, 53.976, -152.4576
15.750000, 49.559, -136.8154
16.000000, 49.578, -74.5299
16.250000, 52.489, -58.1724
16.500000, 55.088, -61.1030
16.750000, 56.422, -67.8271
17.000000, 56.872, -75.1246
17.250000, 56.691, -82.0206
17.500000, 55.997, -87.8584
17.750000, 54.852, -92.2789
18.000000, 53.250, -94.8878
18.250000, 51.097, -94.7325
18.500000, 48.250, -88.2271
18.750000, 45.999, -60.5355
19.000000, 46.908, -7.5374
19.250000, 50.256, 11.9973
19.500000, 53.480, 14.1270
19.750000, 55.834, 10.7112
20.000000, 57.511, 5.0318
20.299999, 58.821, -3.0065
20.600000, 59.502, -11.2823
20.900000, 59.659, -18.9794
21.200001, 59.387, -25.3654
21.400000, 59.026, -28.5464
21.799999, 58.097, -31.7153
22.000000, 57.650, -31.7015
22.400000, 57.023, -29.5547
22.700001, 56.805, -27.2698
23.000000, 56.716, -24.9738
23.299999, 56.719, -22.5364
23.600000, 56.883, -19.8512
24.000000, 57.499, -17.0297
24.299999, 58.197, -16.8564
24.700001, 59.090, -20.0007
25.000000, 59.497, -24.2579
25.400000, 59.494, -30.5558
25.799999, 58.878, -34.7079
26.200001, 58.084, -33.5826
26.500000, 57.956, -29.3316
26.900000, 58.826, -24.5339
27.200001, 59.842, -24.9258
27.600000, 60.898, -30.3646
28.000000, 61.234, -38.3772
28.500000, 60.588, -46.9291
29.000000, 59.348, -48.5156
29.500000, 58.962, -43.7487
30.000000, 59.615, -42.7075
30.400000, 59.865, -46.4117
30.700001, 59.562, -49.7411
31.100000, 58.516, -51.1838
31.500000, 57.351, -44.8290
32.000000, 57.640, -29.4361
32.500000, 59.400, -23.0917
33.000000, 60.658, -25.0353
33.500000, 61.225, -27.4517
34.000000, 61.791, -27.6937
34.500000, 62.732, -28.5628
35.000000, 63.583, -32.6193
35.500000, 63.814, -38.2428
36.000000, 63.348, -41.6174
36.500000, 62.702, -39.3606
37.000000, 62.723, -32.7990
37.500000, 63.450, -28.0805
38.200001, 64.322, -27.1022
38.700001, 64.577, -26.8787
39.500000, 64.990, -25.2905
40.000000, 65.304, -25.5093
40.599998, 65.407, -27.4597
41.200001, 65.103, -29.3206
41.799999, 64.604, -28.9830
42.500000, 64.485, -24.9050
43.099998, 65.385, -22.3133
43.700001, 66.777, -25.5930
44.400002, 67.880, -35.5342
45.000000, 68.019, -44.2775
45.500000, 67.748, -48.6985
46.200001, 67.476, -49.1749
46.799999, 67.634, -47.1195
47.500000, 67.853, -44.2065
48.200001, 68.025, -38.9202
48.700001, 68.354, -34.1481
49.400002, 69.033, -29.5873
50.000000, 69.405, -28.6393
50.799999, 69.263, -28.6302
51.500000, 68.830, -27.9202
52.200001, 68.426, -27.8142
53.000000, 68.118, -29.6284
53.799999, 68.457, -35.2751
54.500000, 68.989, -44.5949
55.200001, 69.405, -51.5570
56.000000, 71.465, -52.2286
57.000000, 75.106, -65.7995
58.000000, 75.621, -91.7579
59.000000, 72.361, -100.8764
60.000000, 70.333, -45.2959
60.799999, 71.362, -37.1568
61.500000, 71.974, -36.4387
62.200001, 72.418, -35.8031
63.000000, 72.552, -36.4262
64.000000, 72.218, -35.7345
65.000000, 72.293, -34.1729
66.000000, 72.552, -35.9749
67.000000, 72.696, -37.4963
68.000000, 73.082, -38.9222
69.000000, 73.165, -41.2583
70.000000, 73.002, -40.7023
71.000000, 73.014, -39.1322
72.000000, 73.175, -36.6583
73.000000, 73.932, -36.2850
74.000000, 74.415, -41.9094
75.000000, 74.182, -46.8018
76.199997, 74.168, -48.6893
77.500000, 74.313, -51.9161
78.800003, 74.158, -51.6583
80.000000, 74.496, -48.6533
81.199997, 75.031, -47.3241
82.500000, 75.488, -46.4606
83.800003, 75.815, -45.2855
85.000000, 76.087, -44.7417
86.199997, 76.092, -46.1310
87.500000, 75.730, -48.1605
88.500000, 75.269, -49.8872
90.000000, 74.907, -43.5405
91.199997, 76.087, -41.6634
92.500000, 76.798, -48.3181
93.800003, 76.995, -51.6712
95.000000, 77.264, -51.2315
96.199997, 77.709, -50.6121
97.500000, 78.090, -51.0552
98.800003, 78.378, -52.2748
100.000000, 78.488, -53.9463
101.500000, 78.574, -54.8582
103.000000, 78.817, -55.2776
104.400002, 79.142, -56.3589
106.000000, 79.349, -58.4805
107.500000, 79.395, -58.9030
109.000000, 79.590, -57.6833
110.599998, 79.882, -56.8761
112.000000, 80.027, -57.1967
113.800003, 80.061, -58.8037
115.000000, 80.127, -60.4916
117.199997, 80.794, -62.7729
118.000000, 81.271, -63.5933
120.599998, 82.180, -69.1330
122.000000, 81.856, -68.4545
124.099998, 81.481, -64.6200
125.000000, 81.385, -63.8240
126.500000, 81.326, -63.7429
128.000000, 81.441, -64.9694
131.500000, 82.020, -67.4520
132.000000, 82.092, -67.4946
134.000000, 82.273, -67.3065
136.000000, 82.347, -67.2203
138.000000, 82.487, -67.9988
140.000000, 82.768, -69.7875
143.000000, 83.170, -71.9358
145.000000, 83.371, -72.4681
147.500000, 83.542, -73.2776
150.000000, 83.685, -74.6935
152.500000, 83.900, -75.5239
155.000000, 84.096, -76.0273
157.500000, 84.191, -77.7059
160.000000, 84.294, -81.0791
162.500000, 84.429, -83.6460
165.000000, 84.683, -82.7654
167.500000, 84.864, -82.1035
170.000000, 84.825, -82.6127
172.500000, 84.941, -83.3755
175.000000, 85.202, -85.2906
177.500000, 85.218, -87.1315
180.000000, 85.138, -87.8509
182.500000, 85.243, -87.7435
185.000000, 85.502, -87.9739
187.500000, 85.674, -89.1791
190.000000, 85.775, -90.7459
192.500000, 85.855, -91.7250
195.000000, 85.925, -91.9921
197.500000, 85.921, -92.3903
200.000000, 85.873, -93.2650
203.000000, 85.838, -94.2352
206.000000, 85.928, -94.3936
209.000000, 86.117, -94.4719
212.000000, 86.242, -94.6627
214.000000, 86.272, -95.0055
218.000000, 86.321, -96.1789
220.000000, 86.396, -96.6201
224.000000, 86.542, -97.1222
227.000000, 86.622, -97.6788
230.000000, 86.701, -98.6085
233.000000, 86.782, -99.1764
236.000000, 86.906, -99.2355
240.000000, 87.040, -99.3802
243.000000, 87.073, -99.8408
247.000000, 87.107, -100.7697
250.000000, 87.185, -101.3424
254.000000, 87.309, -101.7493
258.000000, 87.392, -102.0569
262.000000, 87.458, -103.0239
265.000000, 87.512, -103.6625
269.000000, 87.592, -104.1076
272.000000, 87.650, -104.4869
276.000000, 87.734, -105.0121
280.000000, 87.771, -105.4458
285.000000, 87.844, -106.1883
290.000000, 87.977, -106.9253
295.000000, 88.067, -107.4446
300.000000, 88.151, -107.9722
304.000000, 88.210, -108.3692
307.000000, 88.256, -108.6350
311.000000, 88.309, -109.0905
315.000000, 88.359, -109.8066
320.000000, 88.442, -110.4429
325.000000, 88.516, -110.7984
330.000000, 88.596, -111.0450
335.000000, 88.682, -111.5336
340.000000, 88.734, -111.9102
345.000000, 88.774, -112.3279
350.000000, 88.839, -112.8138
355.000000, 88.913, -113.4822
360.000000, 88.979, -114.3749
365.000000, 89.007, -114.5955
370.000000, 89.037, -114.5530
375.000000, 89.101, -114.9810
382.000000, 89.193, -115.2469
387.000000, 89.258, -115.3473
395.000000, 89.331, -116.0198
400.000000, 89.406, -116.5410
406.000000, 89.518, -116.9254
412.000000, 89.524, -117.3010
418.000000, 89.542, -117.5836
425.000000, 89.534, -117.9808
431.000000, 89.500, -118.3503
437.000000, 89.483, -118.6470
444.000000, 89.459, -118.5498
450.000000, 89.492, -118.1921
455.000000, 89.576, -118.1292
462.000000, 89.693, -118.5379
468.000000, 89.726, -118.8754
475.000000, 89.714, -119.1758
482.000000, 89.738, -119.8035
487.000000, 89.756, -120.0735
494.000000, 89.757, -120.2220
500.000000, 89.766, -120.5445
508.000000, 89.771, -120.9895
515.000000, 89.717, -121.2268
522.000000, 89.630, -121.4244
530.000000, 89.475, -121.5055
538.000000, 89.224, -120.4694
545.000000, 89.079, -117.5940
552.000000, 89.294, -113.6426
560.000000, 89.949, -111.4567
570.000000, 90.634, -113.0561
580.000000, 90.893, -115.3209
590.000000, 90.965, -116.8287
600.000000, 90.993, -117.9888
608.000000, 91.006, -118.5831
615.000000, 91.009, -118.9563
622.000000, 91.017, -119.3044
630.000000, 91.046, -119.6534
640.000000, 91.071, -119.8954
650.000000, 91.064, -120.1562
660.000000, 91.074, -120.4279
670.000000, 91.110, -120.4896
680.000000, 91.143, -120.5485
690.000000, 91.183, -120.7545
700.000000, 91.212, -120.8173
710.000000, 91.213, -120.4559
720.000000, 91.234, -120.3562
730.000000, 91.247, -120.3096
740.000000, 91.243, -120.1363
750.000000, 91.246, -119.9865
762.000000, 91.308, -119.9568
775.000000, 91.370, -119.8974
788.000000, 91.392, -119.6475
800.000000, 91.406, -119.3736
812.000000, 91.429, -119.0847
825.000000, 91.465, -118.9231
838.000000, 91.494, -118.6835
850.000000, 91.523, -118.3870
862.000000, 91.544, -118.1567
875.000000, 91.550, -117.8531
885.000000, 91.561, -117.5575
900.000000, 91.596, -117.1060
912.000000, 91.627, -116.8959
925.000000, 91.656, -116.5908
938.000000, 91.684, -116.1466
950.000000, 91.709, -115.7878
962.000000, 91.725, -115.4147
975.000000, 91.748, -115.0084
988.000000, 91.764, -114.5078
1000.000000, 91.757, -113.9282
1015.000000, 91.753, -113.2397
1030.000000, 91.755, -112.5458
1044.000000, 91.748, -111.8466
1060.000000, 91.781, -111.1768
1075.000000, 91.820, -110.5220
1090.000000, 91.858, -109.7208
1106.000000, 91.902, -108.8303
1120.000000, 91.944, -107.9236
1138.000000, 92.008, -106.8126
1150.000000, 92.056, -106.1321
1172.000000, 92.145, -104.6351
1180.000000, 92.180, -104.0377
1206.000000, 92.302, -102.0103
1220.000000, 92.378, -100.8345
1241.000000, 92.528, -99.1779
1250.000000, 92.603, -98.4624
1265.000000, 92.734, -97.2040
1280.000000, 92.881, -95.9306
1315.000000, 93.217, -93.2787
1320.000000, 93.269, -92.9145
1340.000000, 93.463, -91.4241
1360.000000, 93.612, -89.6972
1380.000000, 93.762, -88.0304
1400.000000, 93.951, -86.1089
1430.000000, 94.334, -83.2197
1450.000000, 94.646, -81.2136
1475.000000, 95.076, -78.7036
1500.000000, 95.542, -76.5209
1525.000000, 96.056, -74.6257
1550.000000, 96.593, -72.8751
1575.000000, 97.129, -71.6263
1600.000000, 97.645, -70.5629
1625.000000, 98.168, -69.3154
1650.000000, 98.725, -67.9924
1675.000000, 99.346, -66.7991
1700.000000, 100.007, -66.1146
1725.000000, 100.686, -65.9451
1750.000000, 101.373, -66.1099
1775.000000, 102.058, -66.5449
1800.000000, 102.720, -67.3831
1825.000000, 103.347, -68.5325
1850.000000, 103.955, -69.8101
1875.000000, 104.569, -71.2056
1900.000000, 105.188, -72.9865
1925.000000, 105.768, -75.2179
1950.000000, 106.301, -77.5737
1975.000000, 106.812, -80.0354
2000.000000, 107.305, -82.7452
2030.000000, 107.836, -86.4459
2060.000000, 108.275, -90.2921
2090.000000, 108.663, -93.9966
2120.000000, 109.014, -97.7838
2140.000000, 109.218, -100.3708
2180.000000, 109.553, -105.3835
2200.000000, 109.702, -107.8297
2240.000000, 109.961, -112.8369
2270.000000, 110.097, -116.6118
2300.000000, 110.192, -120.2671
2330.000000, 110.259, -123.8762
2360.000000, 110.285, -127.4827
2400.000000, 110.255, -132.0907
2430.000000, 110.201, -135.3676
2470.000000, 110.076, -139.5764
2500.000000, 109.940, -142.5385
2540.000000, 109.711, -146.1228
2580.000000, 109.429, -149.1306
2620.000000, 109.178, -151.2876
2650.000000, 109.054, -152.9116
2690.000000, 108.874, -155.3928
2720.000000, 108.706, -157.2112
2760.000000, 108.456, -159.3679
2800.000000, 108.191, -161.2427
2850.000000, 107.858, -163.2632
2900.000000, 107.531, -164.8922
2950.000000, 107.218, -166.1594
3000.000000, 106.927, -167.1971
3040.000000, 106.705, -167.9058
3070.000000, 106.546, -168.3971
3110.000000, 106.341, -168.9753
3150.000000, 106.143, -169.3845
3200.000000, 105.920, -169.7825
3250.000000, 105.707, -170.0940
3300.000000, 105.513, -170.2502
3350.000000, 105.330, -170.3721
3400.000000, 105.164, -170.3435
3450.000000, 105.032, -170.2483
3500.000000, 104.920, -170.1410
3550.000000, 104.822, -170.0002
3600.000000, 104.735, -169.8608
3650.000000, 104.666, -169.6580
3700.000000, 104.606, -169.4508
3750.000000, 104.562, -169.1665
3820.000000, 104.536, -168.8063
3870.000000, 104.534, -168.6245
3950.000000, 104.529, -168.4595
4000.000000, 104.531, -168.2732
4060.000000, 104.546, -168.0436
4120.000000, 104.588, -167.7671
4180.000000, 104.663, -167.6017
4250.000000, 104.763, -167.7101
4310.000000, 104.835, -167.7925
4370.000000, 104.926, -167.7964
4440.000000, 105.076, -167.9115
4500.000000, 105.226, -168.3242
4550.000000, 105.354, -168.8501
4620.000000, 105.518, -169.8516
4680.000000, 105.656, -170.8182
4750.000000, 105.821, -172.1555
4820.000000, 105.950, -173.8986
4870.000000, 106.004, -175.0729
4940.000000, 106.105, -176.2937
5000.000000, 106.269, -177.6316
5080.000000, 106.445, 179.6633
5150.000000, 106.507, 177.2615
5220.000000, 106.598, 175.1344
5300.000000, 106.770, 172.0295
5380.000000, 106.869, 167.8320
5450.000000, 106.825, 163.8254
5520.000000, 106.689, 159.8458
5600.000000, 106.426, 155.3116
5700.000000, 105.884, 149.9836
5800.000000, 105.158, 146.2798
5900.000000, 104.503, 144.3676
6000.000000, 104.006, 142.5266
6080.000000, 103.600, 140.7980
6150.000000, 103.228, 139.5452
6220.000000, 102.864, 138.3433
6300.000000, 102.417, 137.1066
6400.000000, 101.854, 136.2798
6500.000000, 101.374, 135.6929
6600.000000, 100.911, 135.0692
6700.000000, 100.486, 134.8853
6800.000000, 100.168, 134.4805
6900.000000, 99.857, 133.5021
7000.000000, 99.537, 132.5151
7100.000000, 99.167, 131.3455
7200.000000, 98.748, 131.0730
7300.000000, 98.483, 131.2263
7400.000000, 98.267, 130.4321
7500.000000, 98.011, 129.6292
7620.000000, 97.770, 128.3123
7750.000000, 97.456, 126.1417
7880.000000, 97.020, 123.8342
8000.000000, 96.488, 121.3330
8120.000000, 95.849, 119.0020
8250.000000, 95.042, 116.6268
8380.000000, 94.109, 115.1467
8500.000000, 93.224, 114.5742
8620.000000, 92.325, 114.7161
8750.000000, 91.370, 115.4883
8850.000000, 90.641, 116.4421
9000.000000, 89.575, 118.6270
9120.000000, 88.768, 121.1575
9250.000000, 88.017, 124.9720
9380.000000, 87.526, 129.6250
9500.000000, 87.424, 133.4491
9620.000000, 87.592, 134.8867
9750.000000, 87.766, 132.9131
9880.000000, 87.648, 128.2478
10000.000000, 87.172, 123.0488
10150.000000, 86.098, 116.8192
10300.000000, 84.590, 112.5557
10440.000000, 83.009, 110.9769
10600.000000, 81.197, 111.6620
10750.000000, 79.767, 114.3228
10900.000000, 78.908, 114.5703
11060.000000, 78.130, 107.0143
11200.000000, 76.982, 93.7970
11380.000000, 74.600, 67.7286
11500.000000, 73.020, 42.8629
11720.000000, 73.685, -11.9342
11800.000000, 74.964, -27.7997
12060.000000, 79.040, -65.7626
12200.000000, 80.410, -83.0446
12410.000000, 81.183, -106.9519
12500.000000, 81.025, -116.2201
12650.000000, 80.169, -129.0026
12800.000000, 78.791, -137.4329
13150.000000, 75.159, -139.5604
13200.000000, 74.747, -138.3949
13400.000000, 73.419, -134.2327
13600.000000, 72.100, -130.1754
13800.000000, 70.800, -121.8911
14000.000000, 69.941, -112.3408
14300.000000, 69.039, -92.5259
14500.000000, 69.942, -74.7314
14750.000000, 71.604, -69.2355
15000.000000, 72.619, -67.6577
15250.000000, 73.707, -68.0350
15500.000000, 74.242, -72.8762
15750.000000, 74.213, -76.3059
16000.000000, 74.080, -77.8892
16250.000000, 73.911, -79.4136
16500.000000, 73.603, -81.7208
16750.000000, 72.917, -84.9875
17000.000000, 71.670, -86.0593
17250.000000, 70.238, -81.9220
17500.000000, 69.145, -73.3809
17750.000000, 68.590, -64.3430
18000.000000, 68.295, -57.2737
18250.000000, 68.029, -51.1669
18500.000000, 67.812, -45.0728
18750.000000, 67.693, -39.6605
19000.000000, 67.569, -36.6539
19250.000000, 67.158, -36.7089
19500.000000, 66.165, -38.9755
19750.000000, 64.420, -41.9285
20000.000000, 61.757, -43.9971
20300.000000, 57.361, -34.3768
20600.000000, 55.033, 36.9165
20900.000000, 55.243, 52.4468
21200.000000, 54.379, 55.5715
21400.000000, 53.412, 60.7173
21800.000000, 51.345, 76.1714
22000.000000, 49.848, 81.9354
22400.000000, 44.996, 83.9438
22700.000000, 41.466, 76.4791
23000.000000, 39.806, 62.2766
23300.000000, 39.313, 125.9513
23600.000000, 38.997, 125.3348
24000.000000, 38.580, -128.1962
