* Measurement data measured by REW V5.31
* Source: Headset (DS by VECLAN.COM), MICROPHONE (Master Volume), L, volume: 0.720. Timing signal peak level -23.3 dBFS, measurement signal peak level -20.9 dBFS
* Format: 4M Log Swept Sine, 1 sweep at -12.0 dBFS using an acoustic timing reference
* Dated: Apr 20, 2024 9:05:14 PM
* REW Settings:
*  C-weighting compensation: Off
*  Target level: 75.0 dB
* Note: ; Delay -0.0942 ms (-32 mm, -1.27 in) using estimated IR delay relative to Acoustic reference played from HEADPHONE L with no timing offset
* Measurement: Sennheiser HD202 L1
* Smoothing: 1/24 octave
* Frequency Step: 1/48 octave
* Start Frequency: 1.000 Hz
*
* Freq(Hz), SPL(dB), Phase(degrees)
1.000000, 65.874, 61.0391
1.015000, 65.894, 60.5026
1.030000, 65.911, 59.9747
1.044000, 65.924, 59.4895
1.060000, 65.936, 58.9433
1.075000, 65.945, 58.4380
1.090000, 65.951, 57.9364
1.106000, 65.956, 57.3916
1.120000, 65.959, 56.8843
1.138000, 65.961, 56.1756
1.150000, 65.960, 55.6677
1.172000, 65.955, 54.6602
1.180000, 65.952, 54.2658
1.206000, 65.935, 52.9114
1.220000, 65.922, 52.1390
1.241000, 65.896, 50.9296
1.250000, 65.883, 50.3942
1.265000, 65.856, 49.4815
1.280000, 65.825, 48.5460
1.315000, 65.731, 46.2920
1.320000, 65.715, 45.9637
1.340000, 65.645, 44.6399
1.360000, 65.563, 43.3069
1.380000, 65.468, 41.9339
1.400000, 65.361, 40.5531
1.430000, 65.173, 38.5132
1.450000, 65.028, 37.1827
1.475000, 64.821, 35.5280
1.500000, 64.575, 33.7896
1.525000, 64.289, 31.9181
1.550000, 63.969, 29.9084
1.575000, 63.620, 27.7420
1.600000, 63.251, 25.4073
1.625000, 62.866, 22.9520
1.650000, 62.473, 20.3875
1.675000, 62.078, 17.7282
1.700000, 61.687, 14.9911
1.725000, 61.308, 12.1956
1.750000, 60.946, 9.3625
1.775000, 60.608, 6.4961
1.800000, 60.301, 3.5993
1.825000, 60.029, 0.7091
1.850000, 59.788, -2.2346
1.875000, 59.569, -5.3224
1.900000, 59.367, -8.5790
1.925000, 59.181, -11.9896
1.950000, 59.009, -15.5260
1.975000, 58.851, -19.1692
2.000000, 58.706, -22.8938
2.030000, 58.547, -27.3625
2.060000, 58.405, -31.7574
2.090000, 58.276, -36.0055
2.120000, 58.160, -40.0452
2.140000, 58.089, -42.5997
2.180000, 57.962, -47.3695
2.200000, 57.907, -49.6182
2.240000, 57.829, -54.0102
2.270000, 57.801, -57.3003
2.300000, 57.795, -60.5718
2.330000, 57.806, -63.7885
2.360000, 57.829, -66.9126
2.400000, 57.868, -70.9186
2.430000, 57.895, -73.7324
2.470000, 57.921, -77.1704
2.500000, 57.923, -79.4880
2.540000, 57.897, -82.2146
2.580000, 57.836, -84.6260
2.620000, 57.761, -86.9796
2.650000, 57.699, -88.7469
2.690000, 57.608, -91.0890
2.720000, 57.528, -92.8069
2.760000, 57.403, -94.9956
2.800000, 57.249, -97.0487
2.850000, 57.008, -99.2639
2.900000, 56.698, -100.9517
2.950000, 56.299, -102.0892
3.000000, 55.785, -102.9572
3.040000, 55.302, -103.5222
3.070000, 54.910, -103.8422
3.110000, 54.365, -104.0782
3.150000, 53.815, -104.0176
3.200000, 53.152, -103.3818
3.250000, 52.558, -101.8414
3.300000, 52.052, -99.0648
3.350000, 51.587, -94.7810
3.400000, 51.127, -88.7692
3.450000, 50.700, -80.8143
3.500000, 50.351, -71.0762
3.550000, 50.132, -60.4103
3.600000, 50.093, -50.2340
3.650000, 50.291, -41.6789
3.700000, 50.782, -34.9156
3.750000, 51.566, -29.5839
3.820000, 53.012, -24.2292
3.870000, 54.162, -21.6763
3.950000, 55.948, -19.3177
4.000000, 56.910, -18.7293
4.060000, 57.861, -18.6938
4.120000, 58.670, -19.1230
4.180000, 59.385, -19.8310
4.250000, 60.128, -20.8954
4.310000, 60.700, -21.9236
4.370000, 61.223, -23.0537
4.440000, 61.773, -24.5844
4.500000, 62.181, -26.0717
4.550000, 62.479, -27.3773
4.620000, 62.840, -29.2324
4.680000, 63.107, -30.7622
4.750000, 63.378, -32.4407
4.820000, 63.605, -34.1286
4.870000, 63.736, -35.3901
4.940000, 63.877, -37.1766
5.000000, 63.963, -38.6628
5.080000, 64.036, -40.4518
5.150000, 64.062, -41.7963
5.220000, 64.048, -43.0655
5.300000, 63.985, -44.4497
5.380000, 63.884, -45.6595
5.450000, 63.775, -46.4860
5.520000, 63.646, -47.0162
5.600000, 63.467, -47.3170
5.700000, 63.209, -47.3009
5.800000, 62.962, -46.8142
5.900000, 62.761, -45.7774
6.000000, 62.596, -44.1109
6.080000, 62.497, -42.4677
6.150000, 62.451, -40.9353
6.220000, 62.458, -39.4253
6.300000, 62.537, -37.6997
6.400000, 62.728, -35.5583
6.500000, 62.984, -33.7248
6.600000, 63.274, -32.4555
6.700000, 63.600, -31.7465
6.800000, 63.955, -31.4699
6.900000, 64.298, -31.6159
7.000000, 64.599, -32.1975
7.100000, 64.863, -33.1975
7.200000, 65.090, -34.4536
7.300000, 65.267, -35.8273
7.400000, 65.387, -37.3160
7.500000, 65.453, -38.9567
7.620000, 65.468, -40.8937
7.750000, 65.409, -42.7107
7.880000, 65.271, -44.3039
8.000000, 65.102, -45.4355
8.120000, 64.915, -46.0308
8.250000, 64.694, -46.0640
8.380000, 64.514, -45.5489
8.500000, 64.433, -44.5806
8.620000, 64.434, -43.1938
8.750000, 64.545, -41.6415
8.850000, 64.724, -40.6194
9.000000, 65.132, -39.4278
9.120000, 65.523, -39.0491
9.250000, 65.978, -39.3811
9.380000, 66.452, -40.3422
9.500000, 66.866, -41.7246
9.620000, 67.235, -43.5767
9.750000, 67.580, -45.9818
9.880000, 67.848, -48.5936
10.000000, 68.017, -51.1529
10.150000, 68.126, -54.4945
10.300000, 68.124, -57.6255
10.440000, 68.024, -60.3293
10.600000, 67.812, -62.9381
10.750000, 67.532, -64.6546
10.900000, 67.201, -65.6072
11.060000, 66.847, -65.5753
11.200000, 66.564, -64.6008
11.380000, 66.337, -62.2392
11.500000, 66.311, -60.1091
11.720000, 66.529, -55.9089
11.800000, 66.698, -54.5334
12.060000, 67.472, -51.2187
12.200000, 67.947, -50.4152
12.410000, 68.660, -50.2683
12.500000, 68.940, -50.5247
12.650000, 69.364, -51.2831
12.800000, 69.730, -52.2898
13.150000, 70.353, -55.0450
13.200000, 70.420, -55.4327
13.400000, 70.643, -56.8641
13.600000, 70.813, -58.0305
13.800000, 70.953, -58.8890
14.000000, 71.082, -59.4820
14.300000, 71.279, -60.0716
14.500000, 71.417, -60.3302
14.750000, 71.590, -60.5951
15.000000, 71.753, -60.8359
15.250000, 71.902, -61.0830
15.500000, 72.029, -61.2173
15.750000, 72.137, -61.1784
16.000000, 72.240, -60.9332
16.250000, 72.351, -60.5425
16.500000, 72.480, -60.0097
16.750000, 72.632, -59.4042
17.000000, 72.808, -58.8003
17.250000, 73.005, -58.2795
17.500000, 73.217, -57.8527
17.750000, 73.437, -57.5395
18.000000, 73.662, -57.3560
18.250000, 73.887, -57.3295
18.500000, 74.106, -57.4382
18.750000, 74.316, -57.6678
19.000000, 74.512, -57.9986
19.250000, 74.692, -58.4249
19.500000, 74.855, -58.8866
19.750000, 75.002, -59.3490
20.000000, 75.134, -59.7811
20.299999, 75.281, -60.2599
20.600000, 75.423, -60.6469
20.900000, 75.571, -60.9510
21.200001, 75.731, -61.2271
21.400000, 75.846, -61.4196
21.799999, 76.097, -61.8910
22.000000, 76.228, -62.2030
22.400000, 76.486, -63.0377
22.700001, 76.661, -63.7802
23.000000, 76.808, -64.5345
23.299999, 76.927, -65.2057
23.600000, 77.029, -65.6640
24.000000, 77.172, -65.8392
24.299999, 77.318, -65.7113
24.700001, 77.590, -65.4555
25.000000, 77.848, -65.4542
25.400000, 78.210, -65.9889
25.799999, 78.517, -67.0687
26.200001, 78.711, -68.3052
26.500000, 78.785, -68.9986
26.900000, 78.843, -69.2737
27.200001, 78.916, -69.0099
27.600000, 79.110, -68.4579
28.000000, 79.395, -68.3257
28.500000, 79.717, -69.1897
29.000000, 79.847, -70.4030
29.500000, 79.836, -70.6106
30.000000, 79.940, -69.5143
30.400000, 80.219, -68.6739
30.700001, 80.502, -68.6510
31.100000, 80.858, -69.5864
31.500000, 81.091, -71.1832
32.000000, 81.199, -72.9443
32.500000, 81.261, -73.7093
33.000000, 81.444, -73.9128
33.500000, 81.722, -74.5381
34.000000, 81.957, -75.7165
34.500000, 82.096, -76.8050
35.000000, 82.214, -77.3298
35.500000, 82.396, -77.5731
36.000000, 82.617, -78.0530
36.500000, 82.801, -78.8162
37.000000, 82.926, -79.4807
37.500000, 83.049, -79.8486
38.200001, 83.297, -80.3787
38.700001, 83.480, -81.1617
39.500000, 83.677, -82.6642
40.000000, 83.779, -83.3596
40.599998, 83.945, -84.0681
41.200001, 84.141, -84.9442
41.799999, 84.320, -85.9263
42.500000, 84.521, -86.8897
43.099998, 84.719, -87.6538
43.700001, 84.910, -88.5835
44.400002, 85.059, -89.6661
45.000000, 85.143, -90.1471
45.500000, 85.242, -90.2060
46.200001, 85.481, -90.3996
46.799999, 85.718, -91.2197
47.500000, 85.921, -92.7772
48.200001, 86.045, -94.3134
48.700001, 86.127, -95.2517
49.400002, 86.259, -96.4248
50.000000, 86.390, -97.3220
50.799999, 86.592, -98.4605
51.500000, 86.751, -99.4423
52.200001, 86.868, -100.0733
53.000000, 87.017, -100.4093
53.799999, 87.134, -100.8364
54.500000, 87.177, -100.9781
55.200001, 87.255, -101.3024
56.000000, 87.219, -102.7524
57.000000, 86.801, -102.4939
58.000000, 87.074, -99.7503
59.000000, 87.668, -102.5185
60.000000, 87.812, -106.2002
60.799999, 88.031, -108.2194
61.500000, 88.246, -110.4519
62.200001, 88.364, -112.5479
63.000000, 88.471, -114.1207
64.000000, 88.656, -115.4921
65.000000, 88.854, -117.1661
66.000000, 88.897, -119.3498
67.000000, 88.793, -120.5282
68.000000, 88.826, -120.9523
69.000000, 88.953, -121.9472
70.000000, 89.080, -123.1133
71.000000, 89.263, -124.3303
72.000000, 89.428, -126.3475
73.000000, 89.396, -128.3886
74.000000, 89.306, -129.3631
75.000000, 89.266, -130.0888
76.199997, 89.230, -130.6630
77.500000, 89.305, -131.6432
78.800003, 89.304, -133.0688
80.000000, 89.309, -133.9868
81.199997, 89.366, -134.9272
82.500000, 89.457, -136.3060
83.800003, 89.527, -137.8215
85.000000, 89.594, -139.0111
86.199997, 89.655, -140.0905
87.500000, 89.666, -140.9301
88.500000, 89.657, -141.1277
90.000000, 89.754, -141.6347
91.199997, 89.788, -143.5286
92.500000, 89.671, -145.8240
93.800003, 89.549, -147.7864
95.000000, 89.468, -149.1749
96.199997, 89.420, -150.1531
97.500000, 89.364, -150.5667
98.800003, 89.333, -150.4304
100.000000, 89.351, -150.2934
101.500000, 89.421, -151.1583
103.000000, 89.388, -153.0915
104.400002, 89.272, -154.4489
106.000000, 89.244, -155.0162
107.500000, 89.323, -155.8224
109.000000, 89.331, -157.0648
110.599998, 89.260, -158.0304
112.000000, 89.184, -158.6968
113.800003, 89.067, -159.4365
115.000000, 88.990, -160.0731
117.199997, 88.832, -162.3501
118.000000, 88.761, -163.6440
120.599998, 88.267, -166.3914
122.000000, 88.266, -165.4154
124.099998, 88.504, -165.2738
125.000000, 88.552, -165.4373
126.500000, 88.527, -165.6065
128.000000, 88.445, -165.5866
131.500000, 88.310, -166.5119
132.000000, 88.291, -166.7549
134.000000, 88.192, -167.6732
136.000000, 88.107, -168.2319
138.000000, 88.049, -169.0566
140.000000, 87.938, -169.4099
143.000000, 87.816, -169.3799
145.000000, 87.718, -169.7366
147.500000, 87.584, -170.3673
150.000000, 87.474, -170.7984
152.500000, 87.367, -171.0891
155.000000, 87.275, -171.5018
157.500000, 87.165, -171.5309
160.000000, 87.042, -170.6423
162.500000, 86.972, -169.8224
165.000000, 86.898, -170.7831
167.500000, 86.828, -171.8151
170.000000, 86.768, -172.2878
172.500000, 86.604, -172.4085
175.000000, 86.425, -171.6239
177.500000, 86.441, -171.2131
180.000000, 86.421, -171.3519
182.500000, 86.290, -171.2563
185.000000, 86.095, -171.7259
187.500000, 85.955, -172.5968
190.000000, 85.941, -172.8867
192.500000, 85.940, -172.3864
195.000000, 85.857, -171.3249
197.500000, 85.813, -170.6265
200.000000, 85.823, -170.9907
203.000000, 85.762, -171.0739
206.000000, 85.618, -170.5285
209.000000, 85.447, -170.0640
212.000000, 85.332, -169.5883
214.000000, 85.280, -169.1978
218.000000, 85.153, -168.7544
220.000000, 85.071, -168.5351
224.000000, 84.960, -167.8505
227.000000, 84.901, -167.6932
230.000000, 84.821, -167.3287
233.000000, 84.742, -166.6501
236.000000, 84.681, -166.0988
240.000000, 84.630, -165.5329
243.000000, 84.575, -164.8187
247.000000, 84.498, -163.5981
250.000000, 84.422, -162.7728
254.000000, 84.308, -161.5901
258.000000, 84.309, -160.9463
262.000000, 84.319, -161.0331
265.000000, 84.243, -160.8267
269.000000, 84.148, -160.0716
272.000000, 84.106, -159.3244
276.000000, 84.101, -158.2549
280.000000, 84.081, -157.4153
285.000000, 84.039, -156.3442
290.000000, 84.008, -155.3158
295.000000, 83.973, -153.9788
300.000000, 83.972, -152.3180
304.000000, 84.005, -150.9299
307.000000, 84.075, -150.0806
311.000000, 84.200, -149.0820
315.000000, 84.282, -148.1040
320.000000, 84.437, -147.2035
325.000000, 84.610, -146.6285
330.000000, 84.718, -146.7479
335.000000, 84.782, -146.8656
340.000000, 84.836, -147.1311
345.000000, 84.831, -147.3668
350.000000, 84.767, -146.7740
355.000000, 84.668, -145.8610
360.000000, 84.572, -145.1958
365.000000, 84.560, -144.5455
370.000000, 84.568, -143.9613
375.000000, 84.552, -143.4102
382.000000, 84.574, -142.8625
387.000000, 84.603, -142.4670
395.000000, 84.585, -141.3152
400.000000, 84.570, -140.4687
406.000000, 84.549, -139.2704
412.000000, 84.503, -138.2408
418.000000, 84.482, -137.0905
425.000000, 84.455, -136.0296
431.000000, 84.441, -135.3329
437.000000, 84.452, -134.5726
444.000000, 84.485, -133.0316
450.000000, 84.486, -131.5207
455.000000, 84.496, -130.5372
462.000000, 84.530, -129.2866
468.000000, 84.546, -128.4916
475.000000, 84.633, -127.2448
482.000000, 84.726, -126.0848
487.000000, 84.723, -125.2564
494.000000, 84.728, -123.6328
500.000000, 84.810, -122.3409
508.000000, 84.923, -121.0878
515.000000, 85.016, -119.7889
522.000000, 85.143, -118.5776
530.000000, 85.279, -117.6172
538.000000, 85.390, -116.2741
545.000000, 85.499, -115.0502
552.000000, 85.592, -113.8369
560.000000, 85.706, -112.3164
570.000000, 85.842, -110.6636
580.000000, 85.982, -108.8103
590.000000, 86.130, -107.1782
600.000000, 86.301, -105.8105
608.000000, 86.449, -104.6693
615.000000, 86.564, -103.7810
622.000000, 86.677, -102.8850
630.000000, 86.838, -101.6973
640.000000, 87.092, -100.3290
650.000000, 87.323, -99.0991
660.000000, 87.555, -97.7819
670.000000, 87.813, -96.7019
680.000000, 88.073, -96.0779
690.000000, 88.325, -95.4886
700.000000, 88.538, -94.4801
710.000000, 88.732, -93.4891
720.000000, 88.954, -92.7531
730.000000, 89.178, -92.2215
740.000000, 89.388, -91.6604
750.000000, 89.571, -91.0463
762.000000, 89.808, -90.5681
775.000000, 90.129, -90.0947
788.000000, 90.458, -89.8161
800.000000, 90.689, -90.1371
812.000000, 90.838, -90.3097
825.000000, 91.015, -89.7007
838.000000, 91.199, -89.2360
850.000000, 91.348, -88.8680
862.000000, 91.530, -88.2323
875.000000, 91.784, -87.6715
885.000000, 91.963, -87.3328
900.000000, 92.183, -86.9251
912.000000, 92.370, -86.6730
925.000000, 92.569, -86.4610
938.000000, 92.781, -86.2072
950.000000, 92.986, -86.0694
962.000000, 93.168, -86.0179
975.000000, 93.359, -85.9327
988.000000, 93.550, -85.8349
1000.000000, 93.705, -85.9444
1015.000000, 93.855, -86.2175
1030.000000, 93.975, -86.4492
1044.000000, 94.087, -86.3808
1060.000000, 94.247, -85.9108
1075.000000, 94.419, -85.5510
1090.000000, 94.599, -85.2406
1106.000000, 94.820, -85.0801
1120.000000, 94.992, -85.1358
1138.000000, 95.202, -85.0582
1150.000000, 95.355, -85.0661
1172.000000, 95.578, -85.2854
1180.000000, 95.647, -85.2694
1206.000000, 95.915, -85.0050
1220.000000, 96.074, -84.8835
1241.000000, 96.315, -84.5665
1250.000000, 96.431, -84.4562
1265.000000, 96.638, -84.4781
1280.000000, 96.837, -84.6902
1315.000000, 97.234, -85.2594
1320.000000, 97.281, -85.3501
1340.000000, 97.449, -85.6914
1360.000000, 97.593, -85.9571
1380.000000, 97.739, -86.0920
1400.000000, 97.895, -86.2924
1430.000000, 98.119, -86.2087
1450.000000, 98.321, -86.2891
1475.000000, 98.538, -86.6843
1500.000000, 98.727, -86.9640
1525.000000, 98.930, -87.1371
1550.000000, 99.136, -87.4920
1575.000000, 99.310, -87.9552
1600.000000, 99.466, -88.3041
1625.000000, 99.634, -88.7847
1650.000000, 99.765, -89.1911
1675.000000, 99.928, -89.4041
1700.000000, 100.102, -89.8920
1725.000000, 100.247, -90.7028
1750.000000, 100.321, -91.4633
1775.000000, 100.372, -91.8925
1800.000000, 100.433, -92.0709
1825.000000, 100.528, -91.9623
1850.000000, 100.676, -92.0153
1875.000000, 100.831, -92.4089
1900.000000, 100.966, -93.0458
1925.000000, 101.064, -93.7278
1950.000000, 101.137, -94.2997
1975.000000, 101.209, -94.7123
2000.000000, 101.303, -95.1158
2030.000000, 101.435, -95.7458
2060.000000, 101.543, -96.7313
2090.000000, 101.611, -97.6323
2120.000000, 101.682, -98.6073
2140.000000, 101.707, -99.4337
2180.000000, 101.669, -100.7998
2200.000000, 101.651, -101.2999
2240.000000, 101.578, -102.4072
2270.000000, 101.496, -102.9057
2300.000000, 101.427, -103.4046
2330.000000, 101.337, -103.7804
2360.000000, 101.280, -103.8717
2400.000000, 101.202, -104.2985
2430.000000, 101.133, -104.4089
2470.000000, 101.085, -104.6111
2500.000000, 101.069, -104.9605
2540.000000, 101.014, -105.9468
2580.000000, 100.841, -107.0247
2620.000000, 100.580, -107.8029
2650.000000, 100.336, -108.1863
2690.000000, 99.935, -108.1500
2720.000000, 99.598, -107.4676
2760.000000, 99.155, -105.3780
2800.000000, 98.848, -101.9074
2850.000000, 98.850, -96.5570
2900.000000, 99.336, -92.5357
2950.000000, 99.965, -91.9174
3000.000000, 100.350, -93.5241
3040.000000, 100.496, -95.2610
3070.000000, 100.519, -96.6242
3110.000000, 100.488, -98.3062
3150.000000, 100.372, -99.9803
3200.000000, 100.125, -101.8615
3250.000000, 99.796, -103.2689
3300.000000, 99.447, -104.4831
3350.000000, 99.068, -105.8126
3400.000000, 98.565, -107.4513
3450.000000, 97.868, -108.6125
3500.000000, 97.079, -108.6490
3550.000000, 96.297, -108.2198
3600.000000, 95.431, -108.2367
3650.000000, 94.264, -108.3862
3700.000000, 92.626, -106.9528
3750.000000, 90.453, -100.9052
3820.000000, 87.635, -71.0327
3870.000000, 88.131, -37.6534
3950.000000, 92.023, -11.2316
4000.000000, 94.325, -6.5887
4060.000000, 96.578, -5.7279
4120.000000, 98.335, -7.3994
4180.000000, 99.701, -10.0377
4250.000000, 101.002, -13.5323
4310.000000, 101.929, -17.0867
4370.000000, 102.661, -21.1016
4440.000000, 103.280, -25.9786
4500.000000, 103.625, -30.2247
4550.000000, 103.798, -33.5944
4620.000000, 103.890, -38.0522
4680.000000, 103.843, -41.4511
4750.000000, 103.676, -44.8223
4820.000000, 103.411, -47.5534
4870.000000, 103.170, -49.0585
4940.000000, 102.786, -50.3744
5000.000000, 102.448, -50.7698
5080.000000, 102.045, -50.3933
5150.000000, 101.782, -49.5607
5220.000000, 101.619, -48.6033
5300.000000, 101.521, -47.8822
5380.000000, 101.448, -47.7195
5450.000000, 101.349, -48.0651
5520.000000, 101.176, -48.6081
5600.000000, 100.897, -49.0243
5700.000000, 100.497, -49.4292
5800.000000, 99.937, -50.0179
5900.000000, 99.086, -49.5853
6000.000000, 98.130, -45.8531
6080.000000, 97.625, -41.5327
6150.000000, 97.253, -38.1104
6220.000000, 96.850, -33.9642
6300.000000, 96.553, -27.3876
6400.000000, 96.713, -18.8486
6500.000000, 97.271, -12.7589
6600.000000, 97.866, -9.2866
6700.000000, 98.353, -7.2098
6800.000000, 98.762, -5.6805
6900.000000, 99.164, -4.5336
7000.000000, 99.577, -3.8889
7100.000000, 99.985, -3.8658
7200.000000, 100.366, -4.6873
7300.000000, 100.661, -6.4723
7400.000000, 100.774, -9.1082
7500.000000, 100.643, -11.8447
7620.000000, 100.265, -13.9513
7750.000000, 99.900, -14.9756
7880.000000, 99.426, -16.5367
8000.000000, 98.683, -17.2515
8120.000000, 97.885, -15.5889
8250.000000, 97.412, -12.5461
8380.000000, 97.277, -12.1746
8500.000000, 96.882, -14.7760
8620.000000, 95.945, -17.3503
8750.000000, 94.469, -17.4375
8850.000000, 93.229, -14.5462
9000.000000, 91.761, -6.1710
9120.000000, 91.187, 1.5099
9250.000000, 91.210, 7.2612
9380.000000, 91.332, 7.2450
9500.000000, 90.944, 3.9049
9620.000000, 90.002, 0.1358
9750.000000, 88.480, -3.3847
9880.000000, 86.453, -5.9233
10000.000000, 84.110, -6.8482
10150.000000, 80.426, -6.1070
10300.000000, 75.515, 2.2873
10440.000000, 72.014, 90.3099
10600.000000, 74.488, 144.3919
10750.000000, 77.476, 154.4512
10900.000000, 79.640, 161.4244
11060.000000, 81.405, 167.9297
11200.000000, 82.698, 172.8282
11380.000000, 84.004, 177.5858
11500.000000, 84.621, -179.7298
11720.000000, 85.221, -173.5195
11800.000000, 85.383, -169.9481
12060.000000, 86.476, -155.7536
12200.000000, 87.424, -148.7056
12410.000000, 89.163, -141.0276
12500.000000, 89.936, -139.2225
12650.000000, 91.163, -138.0880
12800.000000, 92.190, -139.4154
13150.000000, 92.936, -147.1557
13200.000000, 92.848, -148.0324
13400.000000, 92.141, -149.5744
13600.000000, 91.128, -146.5529
13800.000000, 90.322, -138.8972
14000.000000, 90.055, -129.2047
14300.000000, 90.655, -114.9620
14500.000000, 91.593, -109.3392
14750.000000, 92.383, -108.7166
15000.000000, 92.145, -109.1177
15250.000000, 91.506, -104.6974
15500.000000, 91.255, -97.7521
15750.000000, 91.318, -91.2311
16000.000000, 91.464, -85.5361
16250.000000, 91.595, -80.3362
16500.000000, 91.721, -75.3356
16750.000000, 91.937, -70.8378
17000.000000, 92.098, -68.3441
17250.000000, 91.866, -66.6573
17500.000000, 91.383, -63.1301
17750.000000, 90.987, -58.0220
18000.000000, 90.733, -52.7627
18250.000000, 90.543, -48.0403
18500.000000, 90.317, -44.0339
18750.000000, 89.986, -40.6724
19000.000000, 89.481, -37.9117
19250.000000, 88.697, -35.7119
19500.000000, 87.449, -33.4489
19750.000000, 85.654, -29.1321
20000.000000, 83.495, -20.6599
20300.000000, 80.996, -6.0496
20600.000000, 78.923, 9.2153
20900.000000, 76.906, 23.0137
21200.000000, 74.480, 36.6697
21400.000000, 72.632, 47.6094
21800.000000, 68.987, 75.0071
22000.000000, 66.850, 88.0750
22400.000000, 60.204, 107.4095
22700.000000, 53.301, 117.1886
23000.000000, 45.944, 124.8527
23300.000000, 40.909, -175.8301
23600.000000, 39.282, 161.8665
24000.000000, 38.609, -74.4805
