* Measurement data measured by REW V5.31
* Source: Headset (DS by VECLAN.COM), MICROPHONE (Master Volume), L, volume: 0.720. Timing signal peak level -13.1 dBFS, measurement signal peak level -12.3 dBFS
* Format: 4M Log Swept Sine, 1 sweep at -12.0 dBFS using an acoustic timing reference
* Dated: Apr 13, 2024 8:35:15 PM
* REW Settings:
*  C-weighting compensation: Off
*  Target level: 85.0 dB
* Note: ; Delay -0.1546 ms (-53 mm, -2.09 in) using estimated IR delay relative to Acoustic reference played from HEADPHONE R with no timing offset
* Measurement: R4
* Smoothing: 1/24 octave
* Frequency Step: 1/48 octave
* Start Frequency: 1.000 Hz
*
* Freq(Hz), SPL(dB), Phase(degrees)
1.000000, 62.877, -0.5028
1.015000, 63.016, -0.5924
1.030000, 63.153, -0.6818
1.044000, 63.279, -0.7655
1.060000, 63.422, -0.8621
1.075000, 63.553, -0.9542
1.090000, 63.682, -1.0484
1.106000, 63.819, -1.1514
1.120000, 63.940, -1.2430
1.138000, 64.099, -1.3616
1.150000, 64.206, -1.4409
1.172000, 64.405, -1.5920
1.180000, 64.478, -1.6531
1.206000, 64.714, -1.8488
1.220000, 64.841, -1.9522
1.241000, 65.029, -2.1040
1.250000, 65.108, -2.1677
1.265000, 65.238, -2.2719
1.280000, 65.365, -2.3735
1.315000, 65.647, -2.5999
1.320000, 65.685, -2.6310
1.340000, 65.832, -2.7519
1.360000, 65.968, -2.8663
1.380000, 66.093, -3.0132
1.400000, 66.204, -3.1692
1.430000, 66.343, -3.3933
1.450000, 66.415, -3.5367
1.475000, 66.479, -3.7116
1.500000, 66.513, -3.8866
1.525000, 66.517, -4.0625
1.550000, 66.496, -4.2371
1.575000, 66.452, -4.4300
1.600000, 66.391, -4.6568
1.625000, 66.314, -4.8767
1.650000, 66.227, -5.0887
1.675000, 66.133, -5.2916
1.700000, 66.034, -5.4847
1.725000, 65.936, -5.6671
1.750000, 65.841, -5.8382
1.775000, 65.753, -6.0146
1.800000, 65.677, -6.2124
1.825000, 65.613, -6.3984
1.850000, 65.560, -6.5782
1.875000, 65.512, -6.7569
1.900000, 65.465, -6.9352
1.925000, 65.420, -7.1117
1.950000, 65.377, -7.2845
1.975000, 65.335, -7.4688
2.000000, 65.294, -7.6793
2.030000, 65.246, -7.9203
2.060000, 65.199, -8.1485
2.090000, 65.153, -8.3621
2.120000, 65.108, -8.5595
2.140000, 65.078, -8.6812
2.180000, 65.019, -8.9211
2.200000, 64.990, -9.0495
2.240000, 64.932, -9.2938
2.270000, 64.890, -9.4708
2.300000, 64.849, -9.6419
2.330000, 64.808, -9.8059
2.360000, 64.768, -9.9617
2.400000, 64.717, -10.2018
2.430000, 64.679, -10.3751
2.470000, 64.630, -10.5854
2.500000, 64.594, -10.7260
2.540000, 64.548, -10.8888
2.580000, 64.502, -11.0431
2.620000, 64.459, -11.2160
2.650000, 64.427, -11.3350
2.690000, 64.385, -11.4808
2.720000, 64.355, -11.5801
2.760000, 64.316, -11.6969
2.800000, 64.279, -11.8369
2.850000, 64.234, -11.9930
2.900000, 64.192, -12.1194
2.950000, 64.151, -12.2157
3.000000, 64.113, -12.3176
3.040000, 64.083, -12.3946
3.070000, 64.062, -12.4434
3.110000, 64.035, -12.4974
3.150000, 64.010, -12.5394
3.200000, 63.981, -12.6065
3.250000, 63.954, -12.6711
3.300000, 63.930, -12.7185
3.350000, 63.909, -12.7459
3.400000, 63.891, -12.7882
3.450000, 63.876, -12.8287
3.500000, 63.863, -12.8567
3.550000, 63.852, -12.8746
3.600000, 63.843, -12.9119
3.650000, 63.836, -12.9554
3.700000, 63.831, -12.9932
3.750000, 63.828, -13.0234
3.820000, 63.827, -13.0898
3.870000, 63.829, -13.1393
3.950000, 63.835, -13.2135
4.000000, 63.839, -13.2811
4.060000, 63.847, -13.3748
4.120000, 63.856, -13.4680
4.180000, 63.868, -13.5674
4.250000, 63.883, -13.7158
4.310000, 63.896, -13.8415
4.370000, 63.908, -13.9717
4.440000, 63.922, -14.1613
4.500000, 63.934, -14.3297
4.550000, 63.944, -14.4713
4.620000, 63.957, -14.6961
4.680000, 63.967, -14.8908
4.750000, 63.977, -15.1099
4.820000, 63.986, -15.3485
4.870000, 63.991, -15.5244
4.940000, 63.997, -15.7674
5.000000, 64.000, -15.9827
5.080000, 64.002, -16.2624
5.150000, 64.001, -16.4855
5.220000, 63.996, -16.7185
5.300000, 63.988, -16.9788
5.380000, 63.977, -17.2162
5.450000, 63.966, -17.4127
5.520000, 63.953, -17.5752
5.600000, 63.936, -17.7392
5.700000, 63.912, -17.9162
5.800000, 63.888, -18.0375
5.900000, 63.865, -18.1028
6.000000, 63.843, -18.1040
6.080000, 63.826, -18.0753
6.150000, 63.815, -18.0157
6.220000, 63.807, -17.9409
6.300000, 63.802, -17.8179
6.400000, 63.803, -17.6150
6.500000, 63.812, -17.3869
6.600000, 63.833, -17.1404
6.700000, 63.864, -16.8812
6.800000, 63.907, -16.6056
6.900000, 63.960, -16.3526
7.000000, 64.023, -16.1299
7.100000, 64.097, -15.9379
7.200000, 64.180, -15.7782
7.300000, 64.268, -15.6786
7.400000, 64.359, -15.6392
7.500000, 64.456, -15.6614
7.620000, 64.573, -15.7540
7.750000, 64.697, -15.9427
7.880000, 64.817, -16.2243
8.000000, 64.924, -16.5345
8.120000, 65.022, -16.8877
8.250000, 65.120, -17.3151
8.380000, 65.208, -17.7574
8.500000, 65.283, -18.1665
8.620000, 65.349, -18.5720
8.750000, 65.416, -18.9940
8.850000, 65.464, -19.2977
9.000000, 65.531, -19.7172
9.120000, 65.584, -20.0295
9.250000, 65.641, -20.3440
9.380000, 65.698, -20.6331
9.500000, 65.751, -20.8918
9.620000, 65.806, -21.1406
9.750000, 65.865, -21.4028
9.880000, 65.916, -21.6668
10.000000, 65.953, -21.9068
10.150000, 65.987, -22.2351
10.300000, 66.009, -22.5366
10.440000, 66.021, -22.7904
10.600000, 66.027, -23.0291
10.750000, 66.032, -23.1878
10.900000, 66.036, -23.2808
11.060000, 66.046, -23.3245
11.200000, 66.061, -23.3341
11.380000, 66.091, -23.2770
11.500000, 66.119, -23.2033
11.720000, 66.187, -23.0416
11.800000, 66.219, -22.9874
12.060000, 66.343, -22.8834
12.200000, 66.419, -22.9241
12.410000, 66.537, -23.0525
12.500000, 66.585, -23.1280
12.650000, 66.661, -23.2742
12.800000, 66.730, -23.4225
13.150000, 66.871, -23.7324
13.200000, 66.890, -23.7678
13.400000, 66.971, -23.8523
13.600000, 67.062, -23.8614
13.800000, 67.171, -23.8243
14.000000, 67.300, -23.8157
14.300000, 67.524, -24.0515
14.500000, 67.681, -24.3952
14.750000, 67.863, -25.0373
15.000000, 68.014, -25.8575
15.250000, 68.122, -26.7760
15.500000, 68.187, -27.5735
15.750000, 68.218, -28.1116
16.000000, 68.241, -28.3061
16.250000, 68.289, -28.2318
16.500000, 68.382, -27.9633
16.750000, 68.529, -27.6847
17.000000, 68.718, -27.5764
17.250000, 68.927, -27.7575
17.500000, 69.127, -28.2018
17.750000, 69.296, -28.8118
18.000000, 69.428, -29.4576
18.250000, 69.527, -30.0266
18.500000, 69.608, -30.4031
18.750000, 69.691, -30.5624
19.000000, 69.795, -30.5474
19.250000, 69.930, -30.4857
19.500000, 70.093, -30.4606
19.750000, 70.273, -30.5513
20.000000, 70.456, -30.7891
20.299999, 70.661, -31.2641
20.600000, 70.840, -31.8208
20.900000, 70.993, -32.3552
21.200001, 71.130, -32.8181
21.400000, 71.217, -33.0742
21.799999, 71.393, -33.4768
22.000000, 71.483, -33.6468
22.400000, 71.665, -33.9902
22.700001, 71.800, -34.2209
23.000000, 71.935, -34.4166
23.299999, 72.074, -34.5926
23.600000, 72.222, -34.7479
24.000000, 72.434, -34.9836
24.299999, 72.602, -35.2450
24.700001, 72.824, -35.7057
25.000000, 72.983, -36.1130
25.400000, 73.181, -36.7023
25.799999, 73.368, -37.2669
26.200001, 73.551, -37.8030
26.500000, 73.689, -38.1982
26.900000, 73.872, -38.7180
27.200001, 74.007, -39.1069
27.600000, 74.185, -39.6091
28.000000, 74.365, -40.0890
28.500000, 74.593, -40.7147
29.000000, 74.816, -41.3928
29.500000, 75.018, -42.0823
30.000000, 75.201, -42.6385
30.400000, 75.350, -42.9568
30.700001, 75.471, -43.1424
31.100000, 75.649, -43.3990
31.500000, 75.839, -43.7504
32.000000, 76.070, -44.3240
32.500000, 76.280, -44.9669
33.000000, 76.476, -45.5543
33.500000, 76.672, -46.0823
34.000000, 76.874, -46.5896
34.500000, 77.079, -47.1173
35.000000, 77.284, -47.6515
35.500000, 77.488, -48.1958
36.000000, 77.694, -48.7610
36.500000, 77.896, -49.3587
37.000000, 78.093, -49.9668
37.500000, 78.287, -50.5772
38.200001, 78.557, -51.4505
38.700001, 78.745, -52.1100
39.500000, 79.029, -53.1661
40.000000, 79.203, -53.7861
40.599998, 79.416, -54.5145
41.200001, 79.635, -55.2618
41.799999, 79.857, -56.0649
42.500000, 80.112, -57.0968
43.099998, 80.318, -58.0306
43.700001, 80.510, -58.9298
44.400002, 80.735, -59.8832
45.000000, 80.939, -60.7077
45.500000, 81.110, -61.4742
46.200001, 81.334, -62.6502
46.799999, 81.507, -63.6765
47.500000, 81.695, -64.8563
48.200001, 81.867, -66.0104
48.700001, 81.982, -66.7845
49.400002, 82.143, -67.7809
50.000000, 82.290, -68.6199
50.799999, 82.483, -69.8018
51.500000, 82.640, -70.8215
52.200001, 82.794, -71.7554
53.000000, 82.978, -72.7381
53.799999, 83.174, -73.7038
54.500000, 83.353, -74.6076
55.200001, 83.524, -75.5810
56.000000, 83.706, -76.6721
57.000000, 83.940, -78.0374
58.000000, 84.161, -79.5985
59.000000, 84.356, -81.1763
60.000000, 84.549, -82.8663
60.799999, 84.671, -84.3283
61.500000, 84.750, -85.4870
62.200001, 84.829, -86.4668
63.000000, 84.937, -87.4809
64.000000, 85.091, -88.7518
65.000000, 85.251, -90.0783
66.000000, 85.407, -91.4574
67.000000, 85.554, -92.8494
68.000000, 85.696, -94.2383
69.000000, 85.833, -95.6564
70.000000, 85.960, -97.0832
71.000000, 86.083, -98.4965
72.000000, 86.202, -99.9525
73.000000, 86.305, -101.4124
74.000000, 86.397, -102.8078
75.000000, 86.487, -104.1380
76.199997, 86.593, -105.7223
77.500000, 86.704, -107.4059
78.800003, 86.819, -109.1211
80.000000, 86.913, -110.7741
81.199997, 86.996, -112.4082
82.500000, 87.078, -114.1607
83.800003, 87.152, -115.9010
85.000000, 87.213, -117.4773
86.199997, 87.271, -119.0243
87.500000, 87.329, -120.6700
88.500000, 87.371, -121.9281
90.000000, 87.422, -123.8086
91.199997, 87.453, -125.3019
92.500000, 87.474, -126.9111
93.800003, 87.484, -128.4980
95.000000, 87.481, -129.9515
96.199997, 87.466, -131.3672
97.500000, 87.435, -132.8122
98.800003, 87.398, -134.1200
100.000000, 87.369, -135.2144
101.500000, 87.344, -136.5229
103.000000, 87.327, -137.8238
104.400002, 87.309, -139.0325
106.000000, 87.290, -140.3667
107.500000, 87.270, -141.6384
109.000000, 87.238, -142.9209
110.599998, 87.194, -144.2556
112.000000, 87.152, -145.3855
113.800003, 87.096, -146.7900
115.000000, 87.056, -147.6953
117.199997, 86.969, -149.2469
118.000000, 86.934, -149.7742
120.599998, 86.823, -151.4122
122.000000, 86.764, -152.2923
124.099998, 86.681, -153.4952
125.000000, 86.651, -154.0015
126.500000, 86.599, -154.8714
128.000000, 86.537, -155.7666
131.500000, 86.376, -157.8732
132.000000, 86.353, -158.1535
134.000000, 86.275, -159.1927
136.000000, 86.202, -160.1718
138.000000, 86.107, -161.0218
140.000000, 86.002, -161.7498
143.000000, 85.840, -162.7908
145.000000, 85.718, -163.2850
147.500000, 85.573, -163.5634
150.000000, 85.466, -163.8426
152.500000, 85.377, -164.2682
155.000000, 85.280, -164.6536
157.500000, 85.152, -165.0013
160.000000, 85.009, -165.4156
162.500000, 84.883, -165.8614
165.000000, 84.778, -166.2051
167.500000, 84.680, -166.4450
170.000000, 84.574, -166.6659
172.500000, 84.460, -166.8514
175.000000, 84.345, -166.9885
177.500000, 84.237, -167.1495
180.000000, 84.136, -167.2924
182.500000, 84.039, -167.2720
185.000000, 83.939, -167.2221
187.500000, 83.822, -167.3734
190.000000, 83.702, -167.6241
192.500000, 83.606, -167.6588
195.000000, 83.543, -167.5776
197.500000, 83.477, -167.6191
200.000000, 83.391, -167.6988
203.000000, 83.282, -167.5782
206.000000, 83.161, -167.4348
209.000000, 83.028, -167.4211
212.000000, 82.902, -167.4501
214.000000, 82.827, -167.3259
218.000000, 82.689, -166.8452
220.000000, 82.618, -166.5566
224.000000, 82.479, -165.9284
227.000000, 82.399, -165.4332
230.000000, 82.336, -165.0286
233.000000, 82.269, -164.4996
236.000000, 82.223, -163.7474
240.000000, 82.205, -163.2428
243.000000, 82.182, -163.4380
247.000000, 82.158, -163.8748
250.000000, 82.166, -163.9962
254.000000, 82.159, -163.5737
258.000000, 82.094, -162.8886
262.000000, 82.033, -162.4207
265.000000, 82.000, -162.0801
269.000000, 81.952, -161.4836
272.000000, 81.917, -161.0914
276.000000, 81.862, -160.7076
280.000000, 81.812, -160.0550
285.000000, 81.775, -159.2214
290.000000, 81.749, -158.4211
295.000000, 81.739, -157.5485
300.000000, 81.745, -156.8487
304.000000, 81.777, -156.3467
307.000000, 81.812, -156.0094
311.000000, 81.864, -155.6257
315.000000, 81.934, -155.4124
320.000000, 82.023, -155.5038
325.000000, 82.057, -155.6762
330.000000, 82.009, -155.9297
335.000000, 81.910, -156.0608
340.000000, 81.802, -155.8474
345.000000, 81.705, -155.5261
350.000000, 81.615, -155.1842
355.000000, 81.522, -154.7552
360.000000, 81.440, -154.2641
365.000000, 81.373, -153.7861
370.000000, 81.302, -153.3065
375.000000, 81.222, -152.8270
382.000000, 81.092, -152.1296
387.000000, 80.991, -151.6593
395.000000, 80.783, -150.8650
400.000000, 80.639, -150.1911
406.000000, 80.473, -149.2496
412.000000, 80.325, -148.3069
418.000000, 80.185, -147.2755
425.000000, 80.035, -145.7870
431.000000, 79.922, -144.4552
437.000000, 79.807, -143.1991
444.000000, 79.682, -141.6241
450.000000, 79.605, -140.1848
455.000000, 79.555, -138.9418
462.000000, 79.493, -137.2360
468.000000, 79.450, -135.7419
475.000000, 79.412, -134.0970
482.000000, 79.381, -132.5339
487.000000, 79.359, -131.3734
494.000000, 79.327, -129.7475
500.000000, 79.295, -128.3528
508.000000, 79.261, -126.4614
515.000000, 79.238, -124.7834
522.000000, 79.214, -123.1396
530.000000, 79.204, -121.1167
538.000000, 79.222, -119.0320
545.000000, 79.251, -117.3178
552.000000, 79.262, -115.8018
560.000000, 79.237, -113.8311
570.000000, 79.261, -110.8829
580.000000, 79.354, -108.0778
590.000000, 79.457, -105.3101
600.000000, 79.580, -102.6877
608.000000, 79.669, -100.6119
615.000000, 79.747, -98.5825
622.000000, 79.867, -96.4565
630.000000, 80.051, -94.2691
640.000000, 80.284, -92.0575
650.000000, 80.492, -89.7679
660.000000, 80.722, -87.4720
670.000000, 80.958, -85.4471
680.000000, 81.195, -83.4534
690.000000, 81.444, -81.4291
700.000000, 81.714, -79.5939
710.000000, 82.006, -77.7584
720.000000, 82.338, -76.2674
730.000000, 82.602, -75.2317
740.000000, 82.812, -73.7901
750.000000, 83.071, -72.1542
762.000000, 83.430, -70.5361
775.000000, 83.836, -69.2690
788.000000, 84.174, -68.5095
800.000000, 84.423, -67.5500
812.000000, 84.688, -66.4710
825.000000, 84.969, -65.4847
838.000000, 85.219, -64.4141
850.000000, 85.478, -62.9722
862.000000, 85.809, -61.7883
875.000000, 86.145, -61.0711
885.000000, 86.375, -60.5912
900.000000, 86.721, -59.9207
912.000000, 86.977, -59.4738
925.000000, 87.250, -59.0352
938.000000, 87.513, -58.8289
950.000000, 87.714, -58.8823
962.000000, 87.832, -58.9974
975.000000, 87.895, -58.5929
988.000000, 87.926, -57.5848
1000.000000, 88.008, -55.7444
1015.000000, 88.269, -53.2593
1030.000000, 88.640, -51.3452
1044.000000, 89.016, -50.0198
1060.000000, 89.469, -48.8325
1075.000000, 89.924, -48.0779
1090.000000, 90.385, -48.0288
1106.000000, 90.782, -48.4964
1120.000000, 91.074, -48.6421
1138.000000, 91.459, -48.5331
1150.000000, 91.745, -48.5452
1172.000000, 92.259, -49.3847
1180.000000, 92.402, -49.9165
1206.000000, 92.728, -51.0109
1220.000000, 92.904, -51.1940
1241.000000, 93.178, -51.5014
1250.000000, 93.287, -51.5831
1265.000000, 93.468, -51.5186
1280.000000, 93.695, -51.1840
1315.000000, 94.317, -52.0688
1320.000000, 94.382, -52.2830
1340.000000, 94.628, -52.9330
1360.000000, 94.911, -53.5677
1380.000000, 95.213, -54.1337
1400.000000, 95.467, -54.0433
1430.000000, 95.835, -53.6824
1450.000000, 96.191, -53.6703
1475.000000, 96.662, -54.0047
1500.000000, 97.024, -54.6596
1525.000000, 97.266, -55.2231
1550.000000, 97.506, -55.8138
1575.000000, 97.704, -56.8109
1600.000000, 97.828, -57.6206
1625.000000, 98.020, -58.2973
1650.000000, 98.152, -59.7261
1675.000000, 98.180, -60.8798
1700.000000, 98.173, -61.7738
1725.000000, 98.134, -62.1785
1750.000000, 98.159, -62.2326
1775.000000, 98.212, -62.5491
1800.000000, 98.229, -63.1719
1825.000000, 98.143, -63.8857
1850.000000, 98.082, -64.4958
1875.000000, 98.074, -65.0499
1900.000000, 98.081, -65.4646
1925.000000, 98.095, -65.9929
1950.000000, 98.087, -66.6766
1975.000000, 98.050, -67.4536
2000.000000, 97.966, -68.2544
2030.000000, 97.808, -68.9417
2060.000000, 97.646, -69.1496
2090.000000, 97.528, -69.2539
2120.000000, 97.426, -69.7060
2140.000000, 97.329, -70.2549
2180.000000, 96.988, -71.3260
2200.000000, 96.749, -71.5396
2240.000000, 96.244, -70.8953
2270.000000, 95.935, -69.8847
2300.000000, 95.634, -69.2045
2330.000000, 95.236, -68.2396
2360.000000, 94.828, -66.2644
2400.000000, 94.443, -62.5906
2430.000000, 94.319, -59.7807
2470.000000, 94.243, -57.3441
2500.000000, 94.100, -56.0604
2540.000000, 93.816, -53.7608
2580.000000, 93.580, -50.7610
2620.000000, 93.436, -47.8487
2650.000000, 93.325, -46.1563
2690.000000, 93.055, -43.8985
2720.000000, 92.803, -41.3716
2760.000000, 92.597, -37.1813
2800.000000, 92.527, -33.4775
2850.000000, 92.378, -29.6833
2900.000000, 92.111, -24.7758
2950.000000, 92.034, -18.4050
3000.000000, 92.220, -12.4903
3040.000000, 92.448, -8.6888
3070.000000, 92.612, -6.1985
3110.000000, 92.827, -3.0582
3150.000000, 93.081, -0.2171
3200.000000, 93.345, 2.2112
3250.000000, 93.426, 4.6141
3300.000000, 93.493, 8.2131
3350.000000, 93.727, 11.9438
3400.000000, 94.005, 14.7047
3450.000000, 94.232, 17.3016
3500.000000, 94.549, 19.8229
3550.000000, 94.874, 20.9631
3600.000000, 95.002, 21.1615
3650.000000, 94.950, 21.7691
3700.000000, 94.847, 22.6962
3750.000000, 94.607, 23.3767
3820.000000, 93.910, 26.1523
3870.000000, 93.394, 30.2451
3950.000000, 92.589, 38.4696
4000.000000, 92.070, 46.2338
4060.000000, 91.771, 59.2696
4120.000000, 92.369, 75.9369
4180.000000, 94.238, 90.8314
4250.000000, 97.040, 97.7088
4310.000000, 99.038, 96.0592
4370.000000, 100.411, 91.2050
4440.000000, 101.335, 84.5810
4500.000000, 101.652, 79.3315
4550.000000, 101.685, 76.0373
4620.000000, 101.583, 73.0224
4680.000000, 101.427, 71.5823
4750.000000, 101.232, 71.0151
4820.000000, 101.064, 71.0868
4870.000000, 100.936, 71.3709
4940.000000, 100.754, 72.3181
5000.000000, 100.623, 73.4540
5080.000000, 100.478, 75.2853
5150.000000, 100.392, 77.1423
5220.000000, 100.350, 79.0593
5300.000000, 100.341, 81.1864
5380.000000, 100.385, 83.1750
5450.000000, 100.453, 84.5049
5520.000000, 100.518, 85.3885
5600.000000, 100.549, 85.7061
5700.000000, 100.373, 85.2311
5800.000000, 99.879, 84.9544
5900.000000, 99.057, 85.8999
6000.000000, 97.939, 89.9406
6080.000000, 97.104, 97.0398
6150.000000, 96.746, 105.3532
6220.000000, 96.817, 113.6354
6300.000000, 97.270, 121.6429
6400.000000, 98.112, 128.8018
6500.000000, 99.002, 133.0152
6600.000000, 99.780, 135.0780
6700.000000, 100.395, 135.7829
6800.000000, 100.864, 135.6238
6900.000000, 101.186, 134.7552
7000.000000, 101.327, 133.5204
7100.000000, 101.283, 132.4802
7200.000000, 101.112, 131.8797
7300.000000, 100.865, 131.7778
7400.000000, 100.564, 131.9619
7500.000000, 100.220, 132.3064
7620.000000, 99.716, 132.7404
7750.000000, 99.020, 133.8461
7880.000000, 98.170, 136.2031
8000.000000, 97.377, 138.9443
8120.000000, 96.493, 141.4590
8250.000000, 95.253, 145.3758
8380.000000, 93.925, 152.6284
8500.000000, 92.981, 161.8873
8620.000000, 92.498, 171.8126
8750.000000, 92.423, -179.1657
8850.000000, 92.503, -174.2114
9000.000000, 92.550, -169.6403
9120.000000, 92.389, -167.6949
9250.000000, 91.965, -166.1518
9380.000000, 91.391, -164.7412
9500.000000, 90.721, -164.0797
9620.000000, 89.813, -163.6684
9750.000000, 88.536, -162.4020
9880.000000, 87.091, -159.6825
10000.000000, 85.716, -156.3210
10150.000000, 83.853, -151.4476
10300.000000, 81.785, -144.6179
10440.000000, 79.869, -136.5413
10600.000000, 77.723, -127.8547
10750.000000, 75.401, -120.4988
10900.000000, 72.450, -113.3193
11060.000000, 69.065, -95.0558
11200.000000, 70.479, 27.7360
11380.000000, 75.187, 32.5089
11500.000000, 76.854, 25.2935
11720.000000, 76.694, 13.4182
11800.000000, 75.916, 12.8290
12060.000000, 73.118, 20.7311
12200.000000, 71.913, 18.0743
12410.000000, 73.921, -88.9102
12500.000000, 76.616, -131.9561
12650.000000, 80.798, -149.8477
12800.000000, 83.667, -161.6833
13150.000000, 86.759, -175.4763
13200.000000, 87.020, -176.0174
13400.000000, 87.789, -176.7400
13600.000000, 87.940, -174.9939
13800.000000, 87.760, -167.3617
14000.000000, 88.319, -153.3486
14300.000000, 91.093, -137.8853
14500.000000, 92.830, -136.8394
14750.000000, 93.835, -141.0258
15000.000000, 93.585, -145.2100
15250.000000, 92.525, -145.9994
15500.000000, 91.139, -143.1588
15750.000000, 89.542, -137.3449
16000.000000, 87.716, -126.6880
16250.000000, 86.221, -108.8434
16500.000000, 86.013, -87.4211
16750.000000, 87.025, -70.9075
17000.000000, 88.240, -62.3285
17250.000000, 88.863, -59.3331
17500.000000, 88.615, -57.6855
17750.000000, 87.588, -53.9320
18000.000000, 86.013, -45.3969
18250.000000, 84.389, -30.0556
18500.000000, 83.417, -9.3448
18750.000000, 83.364, 11.3397
19000.000000, 83.747, 27.7533
19250.000000, 83.865, 40.0911
19500.000000, 83.391, 51.8577
19750.000000, 82.600, 66.0421
20000.000000, 81.883, 81.3322
20300.000000, 81.031, 97.4840
20600.000000, 79.959, 111.4735
20900.000000, 78.594, 123.2473
21200.000000, 76.588, 131.6129
21400.000000, 74.616, 136.0776
21800.000000, 68.772, 147.2943
22000.000000, 64.817, 157.3923
22400.000000, 55.030, -156.2347
22700.000000, 46.859, -111.7625
23000.000000, 38.685, -94.2909
23300.000000, 31.826, -44.7833
23600.000000, 28.684, -27.2265
24000.000000, 27.636, 125.7427
