* Measurement data measured by REW V5.31
* Source: Headset (DS by VECLAN.COM), MICROPHONE (Master Volume), L, volume: 0.720. Timing signal peak level -11.0 dBFS, measurement signal peak level -11.0 dBFS
* Format: 4M Log Swept Sine, 1 sweep at -12.0 dBFS using an acoustic timing reference
* Dated: Apr 13, 2024 8:34:26 PM
* REW Settings:
*  C-weighting compensation: Off
*  Target level: 85.0 dB
* Note: ; Delay -0.0698 ms (-24 mm, -0.94 in) using estimated IR delay relative to Acoustic reference played from HEADPHONE R with no timing offset
* Measurement: R3
* Smoothing: 1/24 octave
* Frequency Step: 1/48 octave
* Start Frequency: 1.000 Hz
*
* Freq(Hz), SPL(dB), Phase(degrees)
1.000000, 62.221, -3.6180
1.015000, 62.321, -3.6082
1.030000, 62.420, -3.5949
1.044000, 62.513, -3.5796
1.060000, 62.617, -3.5587
1.075000, 62.714, -3.5360
1.090000, 62.811, -3.5102
1.106000, 62.914, -3.4786
1.120000, 63.007, -3.4456
1.138000, 63.130, -3.3953
1.150000, 63.215, -3.3570
1.172000, 63.375, -3.2847
1.180000, 63.435, -3.2624
1.206000, 63.629, -3.1816
1.220000, 63.735, -3.1335
1.241000, 63.892, -3.0565
1.250000, 63.960, -3.0220
1.265000, 64.070, -2.9627
1.280000, 64.178, -2.9016
1.315000, 64.420, -2.7541
1.320000, 64.453, -2.7327
1.340000, 64.579, -2.6467
1.360000, 64.697, -2.5593
1.380000, 64.804, -2.5106
1.400000, 64.898, -2.4776
1.430000, 65.015, -2.4319
1.450000, 65.073, -2.4046
1.475000, 65.122, -2.3729
1.500000, 65.143, -2.3385
1.525000, 65.137, -2.2989
1.550000, 65.108, -2.2540
1.575000, 65.060, -2.2259
1.600000, 64.996, -2.2321
1.625000, 64.919, -2.2343
1.650000, 64.833, -2.2329
1.675000, 64.741, -2.2287
1.700000, 64.648, -2.2220
1.725000, 64.555, -2.2136
1.750000, 64.468, -2.2039
1.775000, 64.389, -2.2103
1.800000, 64.322, -2.2496
1.825000, 64.269, -2.2881
1.850000, 64.228, -2.3254
1.875000, 64.194, -2.3594
1.900000, 64.163, -2.3895
1.925000, 64.136, -2.4160
1.950000, 64.111, -2.4386
1.975000, 64.089, -2.4748
2.000000, 64.070, -2.5409
2.030000, 64.050, -2.6157
2.060000, 64.032, -2.6884
2.090000, 64.016, -2.7596
2.120000, 64.002, -2.8301
2.140000, 63.994, -2.8771
2.180000, 63.978, -2.9928
2.200000, 63.971, -3.0706
2.240000, 63.959, -3.2246
2.270000, 63.953, -3.3374
2.300000, 63.949, -3.4474
2.330000, 63.947, -3.5548
2.360000, 63.947, -3.6601
2.400000, 63.950, -3.8453
2.430000, 63.953, -3.9886
2.470000, 63.960, -4.1774
2.500000, 63.965, -4.3177
2.540000, 63.973, -4.5036
2.580000, 63.983, -4.7074
2.620000, 63.994, -4.9481
2.650000, 64.004, -5.1267
2.690000, 64.019, -5.3624
2.720000, 64.032, -5.5371
2.760000, 64.050, -5.7650
2.800000, 64.069, -6.0287
2.850000, 64.093, -6.3587
2.900000, 64.116, -6.6824
2.950000, 64.140, -7.0021
3.000000, 64.164, -7.3537
3.040000, 64.183, -7.6463
3.070000, 64.198, -7.8642
3.110000, 64.219, -8.1514
3.150000, 64.239, -8.4336
3.200000, 64.264, -8.8079
3.250000, 64.289, -9.1853
3.300000, 64.313, -9.5519
3.350000, 64.337, -9.9127
3.400000, 64.361, -10.3053
3.450000, 64.384, -10.7071
3.500000, 64.407, -11.0997
3.550000, 64.429, -11.4786
3.600000, 64.450, -11.8674
3.650000, 64.470, -12.2500
3.700000, 64.489, -12.6203
3.750000, 64.507, -12.9854
3.820000, 64.529, -13.5212
3.870000, 64.545, -13.8982
3.950000, 64.568, -14.4659
4.000000, 64.581, -14.8152
4.060000, 64.597, -15.2202
4.120000, 64.611, -15.6074
4.180000, 64.625, -15.9859
4.250000, 64.640, -16.4350
4.310000, 64.652, -16.7906
4.370000, 64.664, -17.1197
4.440000, 64.677, -17.5006
4.500000, 64.687, -17.8037
4.550000, 64.696, -18.0400
4.620000, 64.708, -18.3726
4.680000, 64.718, -18.6381
4.750000, 64.732, -18.9139
4.820000, 64.748, -19.1772
4.870000, 64.760, -19.3503
4.940000, 64.777, -19.5673
5.000000, 64.793, -19.7476
5.080000, 64.817, -19.9734
5.150000, 64.839, -20.1446
5.220000, 64.864, -20.3124
5.300000, 64.895, -20.4842
5.380000, 64.928, -20.6358
5.450000, 64.958, -20.7739
5.520000, 64.992, -20.8985
5.600000, 65.032, -21.0342
5.700000, 65.087, -21.1991
5.800000, 65.144, -21.3557
5.900000, 65.203, -21.5230
6.000000, 65.265, -21.6875
6.080000, 65.316, -21.8276
6.150000, 65.361, -21.9426
6.220000, 65.406, -22.0689
6.300000, 65.457, -22.2121
6.400000, 65.523, -22.3916
6.500000, 65.588, -22.5781
6.600000, 65.652, -22.7582
6.700000, 65.716, -22.9426
6.800000, 65.780, -23.1216
6.900000, 65.843, -23.3025
7.000000, 65.906, -23.4740
7.100000, 65.970, -23.6443
7.200000, 66.033, -23.8088
7.300000, 66.096, -23.9770
7.400000, 66.160, -24.1421
7.500000, 66.223, -24.3135
7.620000, 66.299, -24.5184
7.750000, 66.380, -24.7456
7.880000, 66.461, -24.9850
8.000000, 66.534, -25.2065
8.120000, 66.604, -25.4374
8.250000, 66.678, -25.6956
8.380000, 66.748, -25.9495
8.500000, 66.808, -26.1813
8.620000, 66.865, -26.4050
8.750000, 66.924, -26.6290
8.850000, 66.968, -26.7831
9.000000, 67.030, -26.9806
9.120000, 67.081, -27.1129
9.250000, 67.136, -27.2266
9.380000, 67.194, -27.3095
9.500000, 67.252, -27.3738
9.620000, 67.315, -27.4224
9.750000, 67.388, -27.4668
9.880000, 67.460, -27.5278
10.000000, 67.523, -27.5979
10.150000, 67.598, -27.7499
10.300000, 67.671, -27.9476
10.440000, 67.736, -28.1777
10.600000, 67.809, -28.4911
10.750000, 67.874, -28.8347
10.900000, 67.937, -29.2136
11.060000, 67.998, -29.6613
11.200000, 68.046, -30.0979
11.380000, 68.100, -30.6349
11.500000, 68.130, -30.9669
11.720000, 68.182, -31.5072
11.800000, 68.202, -31.6765
12.060000, 68.275, -32.1631
12.200000, 68.325, -32.4226
12.410000, 68.412, -32.7787
12.500000, 68.454, -32.9306
12.650000, 68.528, -33.1892
12.800000, 68.605, -33.4665
13.150000, 68.794, -34.2744
13.200000, 68.820, -34.4107
13.400000, 68.923, -34.9747
13.600000, 69.016, -35.5375
13.800000, 69.098, -36.0676
14.000000, 69.171, -36.5301
14.300000, 69.271, -37.1162
14.500000, 69.337, -37.3638
14.750000, 69.429, -37.5222
15.000000, 69.540, -37.5530
15.250000, 69.680, -37.5713
15.500000, 69.840, -37.5808
15.750000, 70.013, -37.6206
16.000000, 70.193, -37.7163
16.250000, 70.375, -37.9156
16.500000, 70.554, -38.1653
16.750000, 70.726, -38.4491
17.000000, 70.891, -38.7531
17.250000, 71.049, -39.0872
17.500000, 71.198, -39.4061
17.750000, 71.337, -39.6894
18.000000, 71.472, -39.9280
18.250000, 71.604, -40.1387
18.500000, 71.738, -40.3087
18.750000, 71.877, -40.4550
19.000000, 72.022, -40.6042
19.250000, 72.173, -40.8096
19.500000, 72.327, -41.0644
19.750000, 72.477, -41.3732
20.000000, 72.620, -41.7276
20.299999, 72.780, -42.2152
20.600000, 72.928, -42.6994
20.900000, 73.067, -43.1488
21.200001, 73.201, -43.5698
21.400000, 73.291, -43.8332
21.799999, 73.473, -44.3237
22.000000, 73.566, -44.5628
22.400000, 73.755, -45.0749
22.700001, 73.896, -45.4610
23.000000, 74.037, -45.8443
23.299999, 74.176, -46.2351
23.600000, 74.314, -46.6040
24.000000, 74.497, -47.0387
24.299999, 74.636, -47.3274
24.700001, 74.830, -47.6378
25.000000, 74.986, -47.8331
25.400000, 75.210, -48.1253
25.799999, 75.447, -48.5007
26.200001, 75.683, -49.0099
26.500000, 75.852, -49.4686
26.900000, 76.060, -50.1199
27.200001, 76.203, -50.6075
27.600000, 76.381, -51.2197
28.000000, 76.548, -51.7786
28.500000, 76.745, -52.4247
29.000000, 76.929, -52.9674
29.500000, 77.108, -53.3677
30.000000, 77.301, -53.6338
30.400000, 77.474, -53.8468
30.700001, 77.613, -54.0510
31.100000, 77.802, -54.4203
31.500000, 77.986, -54.9018
32.000000, 78.198, -55.5664
32.500000, 78.394, -56.2235
33.000000, 78.585, -56.8174
33.500000, 78.779, -57.3801
34.000000, 78.980, -57.9409
34.500000, 79.184, -58.5398
35.000000, 79.386, -59.1775
35.500000, 79.581, -59.8416
36.000000, 79.768, -60.4924
36.500000, 79.950, -61.1127
37.000000, 80.133, -61.7058
37.500000, 80.317, -62.3031
38.200001, 80.573, -63.1582
38.700001, 80.753, -63.7822
39.500000, 81.039, -64.8095
40.000000, 81.214, -65.4798
40.599998, 81.419, -66.3106
41.200001, 81.619, -67.1432
41.799999, 81.816, -67.9910
42.500000, 82.039, -69.0054
43.099998, 82.223, -69.8483
43.700001, 82.410, -70.6559
44.400002, 82.638, -71.6504
45.000000, 82.827, -72.6096
45.500000, 82.970, -73.4465
46.200001, 83.154, -74.5761
46.799999, 83.307, -75.5029
47.500000, 83.477, -76.5673
48.200001, 83.639, -77.5723
48.700001, 83.755, -78.2489
49.400002, 83.924, -79.2069
50.000000, 84.062, -80.0604
50.799999, 84.233, -81.1207
51.500000, 84.393, -81.9236
52.200001, 84.577, -82.7559
53.000000, 84.793, -83.8860
53.799999, 84.991, -85.1364
54.500000, 85.152, -86.2296
55.200001, 85.307, -87.3068
56.000000, 85.481, -88.5437
57.000000, 85.685, -90.1387
58.000000, 85.864, -91.7079
59.000000, 86.038, -93.2192
60.000000, 86.199, -94.8642
60.799999, 86.291, -96.1794
61.500000, 86.357, -97.1797
62.200001, 86.431, -98.0549
63.000000, 86.532, -99.0193
64.000000, 86.672, -100.2734
65.000000, 86.820, -101.6101
66.000000, 86.965, -103.0176
67.000000, 87.101, -104.4538
68.000000, 87.226, -105.8917
69.000000, 87.340, -107.3212
70.000000, 87.440, -108.7001
71.000000, 87.535, -110.0084
72.000000, 87.630, -111.2923
73.000000, 87.726, -112.5716
74.000000, 87.821, -113.8671
75.000000, 87.912, -115.1756
76.199997, 88.017, -116.7604
77.500000, 88.124, -118.5013
78.800003, 88.221, -120.2649
80.000000, 88.299, -121.8983
81.199997, 88.371, -123.5160
82.500000, 88.442, -125.2653
83.800003, 88.505, -126.9972
85.000000, 88.557, -128.5716
86.199997, 88.602, -130.1284
87.500000, 88.641, -131.7870
88.500000, 88.664, -133.0401
90.000000, 88.689, -134.8956
91.199997, 88.700, -136.3542
92.500000, 88.709, -137.9195
93.800003, 88.711, -139.5031
95.000000, 88.699, -140.9694
96.199997, 88.667, -142.4114
97.500000, 88.609, -143.8236
98.800003, 88.546, -145.0000
100.000000, 88.504, -145.9531
101.500000, 88.469, -147.1347
103.000000, 88.443, -148.3258
104.400002, 88.423, -149.4591
106.000000, 88.400, -150.7856
107.500000, 88.370, -152.0437
109.000000, 88.331, -153.2854
110.599998, 88.281, -154.5849
112.000000, 88.231, -155.7086
113.800003, 88.158, -157.1001
115.000000, 88.109, -158.0007
117.199997, 88.020, -159.6086
118.000000, 87.989, -160.1929
120.599998, 87.863, -162.0565
122.000000, 87.785, -162.8453
124.099998, 87.692, -163.8896
125.000000, 87.657, -164.3624
126.500000, 87.595, -165.2039
128.000000, 87.527, -166.0833
131.500000, 87.363, -168.1854
132.000000, 87.338, -168.4596
134.000000, 87.237, -169.4370
136.000000, 87.131, -170.3276
138.000000, 86.998, -171.1813
140.000000, 86.861, -171.8193
143.000000, 86.698, -172.7179
145.000000, 86.571, -173.2007
147.500000, 86.400, -173.5000
150.000000, 86.268, -173.7802
152.500000, 86.173, -174.1387
155.000000, 86.090, -174.3348
157.500000, 85.976, -174.5230
160.000000, 85.835, -174.8131
162.500000, 85.705, -175.2266
165.000000, 85.593, -175.5972
167.500000, 85.491, -175.8290
170.000000, 85.386, -176.0174
172.500000, 85.272, -176.2089
175.000000, 85.156, -176.3813
177.500000, 85.047, -176.5451
180.000000, 84.944, -176.6588
182.500000, 84.843, -176.6927
185.000000, 84.737, -176.6915
187.500000, 84.638, -176.7799
190.000000, 84.549, -177.0422
192.500000, 84.448, -177.2450
195.000000, 84.343, -177.1520
197.500000, 84.245, -177.0011
200.000000, 84.145, -176.9781
203.000000, 84.026, -176.9546
206.000000, 83.906, -176.7995
209.000000, 83.793, -176.4994
212.000000, 83.692, -176.3485
214.000000, 83.620, -176.2899
218.000000, 83.481, -176.0283
220.000000, 83.417, -175.8448
224.000000, 83.298, -175.3462
227.000000, 83.229, -174.8779
230.000000, 83.161, -174.4713
233.000000, 83.108, -173.9791
236.000000, 83.102, -173.5835
240.000000, 83.103, -173.5276
243.000000, 83.077, -173.7116
247.000000, 83.056, -173.9474
250.000000, 83.055, -173.8555
254.000000, 83.031, -173.3625
258.000000, 82.971, -172.8551
262.000000, 82.917, -172.4003
265.000000, 82.884, -171.9787
269.000000, 82.837, -171.5327
272.000000, 82.807, -171.3146
276.000000, 82.773, -171.0708
280.000000, 82.742, -170.6635
285.000000, 82.715, -170.0629
290.000000, 82.696, -169.4809
295.000000, 82.698, -168.8510
300.000000, 82.733, -168.1961
304.000000, 82.783, -167.8053
307.000000, 82.816, -167.6357
311.000000, 82.856, -167.5057
315.000000, 82.898, -167.5152
320.000000, 82.937, -167.7500
325.000000, 82.963, -168.0706
330.000000, 82.941, -168.5588
335.000000, 82.849, -168.8944
340.000000, 82.725, -168.8835
345.000000, 82.604, -168.7063
350.000000, 82.508, -168.5025
355.000000, 82.419, -168.2790
360.000000, 82.324, -168.0354
365.000000, 82.226, -167.8589
370.000000, 82.117, -167.5800
375.000000, 81.991, -167.2487
382.000000, 81.790, -166.6534
387.000000, 81.643, -166.2081
395.000000, 81.411, -165.4429
400.000000, 81.260, -164.7302
406.000000, 81.092, -163.7285
412.000000, 80.947, -162.6900
418.000000, 80.805, -161.5897
425.000000, 80.667, -160.1478
431.000000, 80.586, -158.8438
437.000000, 80.498, -157.6223
444.000000, 80.413, -156.0857
450.000000, 80.363, -154.7894
455.000000, 80.322, -153.7627
462.000000, 80.265, -152.2682
468.000000, 80.228, -150.9020
475.000000, 80.200, -149.3647
482.000000, 80.175, -147.8436
487.000000, 80.172, -146.8629
494.000000, 80.158, -145.6608
500.000000, 80.127, -144.5448
508.000000, 80.101, -142.7482
515.000000, 80.106, -141.2201
522.000000, 80.103, -139.8107
530.000000, 80.096, -138.0456
538.000000, 80.112, -136.2910
545.000000, 80.140, -134.7871
552.000000, 80.163, -133.3736
560.000000, 80.167, -131.6288
570.000000, 80.216, -129.0177
580.000000, 80.316, -126.6482
590.000000, 80.425, -124.3574
600.000000, 80.552, -122.0293
608.000000, 80.640, -120.3025
615.000000, 80.727, -118.6570
622.000000, 80.855, -116.9339
630.000000, 81.033, -115.1503
640.000000, 81.232, -113.2583
650.000000, 81.417, -111.3616
660.000000, 81.636, -109.5236
670.000000, 81.863, -107.8208
680.000000, 82.098, -106.1358
690.000000, 82.349, -104.5632
700.000000, 82.602, -103.1166
710.000000, 82.856, -101.7067
720.000000, 83.139, -100.5250
730.000000, 83.382, -99.6241
740.000000, 83.592, -98.4314
750.000000, 83.844, -97.0938
762.000000, 84.196, -95.7642
775.000000, 84.594, -94.7688
788.000000, 84.934, -94.2197
800.000000, 85.205, -93.5499
812.000000, 85.504, -92.9190
825.000000, 85.804, -92.6226
838.000000, 86.044, -92.2669
850.000000, 86.264, -91.5321
862.000000, 86.540, -90.8928
875.000000, 86.833, -90.5973
885.000000, 87.030, -90.3827
900.000000, 87.322, -90.0903
912.000000, 87.536, -89.8982
925.000000, 87.772, -89.6801
938.000000, 87.994, -89.6827
950.000000, 88.161, -89.7794
962.000000, 88.270, -89.8552
975.000000, 88.346, -89.4861
988.000000, 88.406, -88.5784
1000.000000, 88.524, -87.0674
1015.000000, 88.812, -85.1837
1030.000000, 89.188, -83.8920
1044.000000, 89.544, -83.0956
1060.000000, 89.967, -82.2583
1075.000000, 90.416, -81.7765
1090.000000, 90.878, -82.0671
1106.000000, 91.278, -82.8894
1120.000000, 91.577, -83.3764
1138.000000, 91.963, -83.7319
1150.000000, 92.250, -84.0484
1172.000000, 92.768, -85.5229
1180.000000, 92.911, -86.2809
1206.000000, 93.248, -88.1430
1220.000000, 93.423, -88.7553
1241.000000, 93.684, -89.6740
1250.000000, 93.789, -89.9969
1265.000000, 93.972, -90.3586
1280.000000, 94.208, -90.5498
1315.000000, 94.818, -92.6233
1320.000000, 94.880, -92.9898
1340.000000, 95.099, -94.2639
1360.000000, 95.272, -95.5577
1380.000000, 95.374, -96.7088
1400.000000, 95.486, -97.3076
1430.000000, 95.748, -97.9783
1450.000000, 95.960, -98.6678
1475.000000, 96.199, -99.6896
1500.000000, 96.422, -100.9021
1525.000000, 96.609, -101.9472
1550.000000, 96.837, -102.9830
1575.000000, 97.050, -104.4637
1600.000000, 97.203, -105.8404
1625.000000, 97.406, -107.2453
1650.000000, 97.538, -109.3013
1675.000000, 97.579, -111.0717
1700.000000, 97.584, -112.6263
1725.000000, 97.559, -113.6689
1750.000000, 97.596, -114.4143
1775.000000, 97.661, -115.3750
1800.000000, 97.730, -116.5023
1825.000000, 97.767, -117.7248
1850.000000, 97.800, -118.8138
1875.000000, 97.831, -120.0221
1900.000000, 97.851, -121.2549
1925.000000, 97.853, -122.6293
1950.000000, 97.820, -124.0125
1975.000000, 97.760, -125.3495
2000.000000, 97.674, -126.6095
2030.000000, 97.545, -127.9488
2060.000000, 97.425, -128.9749
2090.000000, 97.336, -130.1353
2120.000000, 97.223, -131.6768
2140.000000, 97.102, -132.8271
2180.000000, 96.741, -134.7842
2200.000000, 96.516, -135.4453
2240.000000, 96.054, -135.9812
2270.000000, 95.749, -136.0041
2300.000000, 95.437, -136.2768
2330.000000, 95.023, -136.1910
2360.000000, 94.598, -134.9913
2400.000000, 94.211, -132.2150
2430.000000, 94.112, -130.2515
2470.000000, 94.041, -129.1119
2500.000000, 93.878, -128.7352
2540.000000, 93.557, -127.3249
2580.000000, 93.353, -124.9942
2620.000000, 93.279, -123.2837
2650.000000, 93.174, -122.6558
2690.000000, 92.891, -121.3950
2720.000000, 92.675, -119.5297
2760.000000, 92.544, -116.6761
2800.000000, 92.501, -114.6588
2850.000000, 92.301, -112.7894
2900.000000, 91.985, -109.4633
2950.000000, 91.828, -104.7465
3000.000000, 91.909, -99.9059
3040.000000, 92.102, -96.6853
3070.000000, 92.267, -94.6547
3110.000000, 92.521, -92.2518
3150.000000, 92.803, -90.5446
3200.000000, 93.037, -89.3007
3250.000000, 93.149, -87.6142
3300.000000, 93.309, -85.1821
3350.000000, 93.591, -83.0654
3400.000000, 93.861, -81.7283
3450.000000, 94.101, -80.2407
3500.000000, 94.460, -78.9587
3550.000000, 94.799, -79.1435
3600.000000, 94.939, -79.9351
3650.000000, 94.963, -80.2071
3700.000000, 94.959, -80.5213
3750.000000, 94.792, -81.1072
3820.000000, 94.271, -79.8322
3870.000000, 93.943, -77.4942
3950.000000, 93.322, -72.4296
4000.000000, 92.945, -66.7678
4060.000000, 92.761, -57.2169
4120.000000, 93.294, -44.2136
4180.000000, 94.980, -32.2754
4250.000000, 97.596, -27.6200
4310.000000, 99.510, -30.6800
4370.000000, 100.864, -36.8986
4440.000000, 101.803, -45.3886
4500.000000, 102.137, -52.3874
4550.000000, 102.198, -57.2070
4620.000000, 102.129, -62.6612
4680.000000, 101.964, -66.2617
4750.000000, 101.746, -69.2742
4820.000000, 101.539, -71.7029
4870.000000, 101.368, -73.1360
4940.000000, 101.127, -74.5286
5000.000000, 100.934, -75.4231
5080.000000, 100.682, -76.1270
5150.000000, 100.504, -76.3670
5220.000000, 100.364, -76.4578
5300.000000, 100.245, -76.4664
5380.000000, 100.177, -76.5355
5450.000000, 100.140, -76.8507
5520.000000, 100.106, -77.4330
5600.000000, 100.038, -78.5386
5700.000000, 99.805, -80.4033
5800.000000, 99.358, -82.0251
5900.000000, 98.686, -82.7680
6000.000000, 97.770, -81.1805
6080.000000, 97.073, -76.6808
6150.000000, 96.768, -70.8932
6220.000000, 96.825, -65.0123
6300.000000, 97.214, -59.3754
6400.000000, 97.968, -54.5138
6500.000000, 98.831, -52.0159
6600.000000, 99.672, -51.4087
6700.000000, 100.459, -52.1571
6800.000000, 101.207, -54.0815
6900.000000, 101.895, -57.3891
7000.000000, 102.432, -61.9850
7100.000000, 102.745, -67.4251
7200.000000, 102.811, -73.2113
7300.000000, 102.638, -78.7642
7400.000000, 102.269, -83.7669
7500.000000, 101.757, -88.0745
7620.000000, 100.985, -92.3055
7750.000000, 100.022, -95.2395
7880.000000, 98.974, -96.3553
8000.000000, 98.049, -96.4915
8120.000000, 97.114, -96.6550
8250.000000, 95.940, -96.0713
8380.000000, 94.689, -93.4703
8500.000000, 93.621, -89.2267
8620.000000, 92.771, -83.5535
8750.000000, 92.193, -77.0886
8850.000000, 91.968, -72.8063
9000.000000, 91.831, -68.2145
9120.000000, 91.793, -66.4984
9250.000000, 91.641, -66.6149
9380.000000, 91.283, -68.2644
9500.000000, 90.642, -70.9123
9620.000000, 89.596, -73.4452
9750.000000, 88.018, -74.4030
9880.000000, 86.146, -72.3833
10000.000000, 84.274, -67.6878
10150.000000, 81.796, -55.3654
10300.000000, 80.147, -31.3653
10440.000000, 80.420, -9.6694
10600.000000, 81.561, 3.7533
10750.000000, 82.348, 10.4320
10900.000000, 82.781, 16.1712
11060.000000, 83.241, 24.2004
11200.000000, 84.061, 31.6893
11380.000000, 85.462, 36.0906
11500.000000, 86.063, 35.2022
11720.000000, 85.950, 34.9874
11800.000000, 85.861, 38.1310
12060.000000, 87.150, 50.9592
12200.000000, 88.263, 52.8589
12410.000000, 89.474, 50.0990
12500.000000, 89.732, 47.7867
12650.000000, 89.755, 43.8010
12800.000000, 89.311, 41.2720
13150.000000, 88.223, 46.9694
13200.000000, 88.254, 48.1621
13400.000000, 88.790, 50.0570
13600.000000, 89.331, 45.6047
13800.000000, 89.134, 37.0145
14000.000000, 88.244, 26.7969
14300.000000, 85.695, 5.7390
14500.000000, 83.154, -15.7312
14750.000000, 81.302, -67.7109
15000.000000, 83.760, -126.6860
15250.000000, 86.455, -159.6246
15500.000000, 87.965, 179.2048
15750.000000, 88.572, 163.9968
16000.000000, 88.477, 152.7787
16250.000000, 87.806, 145.6034
16500.000000, 86.914, 143.8773
16750.000000, 86.600, 146.7132
17000.000000, 87.230, 147.8565
17250.000000, 87.961, 142.2744
17500.000000, 87.725, 132.2391
17750.000000, 86.180, 124.2878
18000.000000, 83.749, 124.3503
18250.000000, 81.369, 134.9007
18500.000000, 80.022, 152.3282
18750.000000, 79.887, 169.5235
19000.000000, 80.387, -177.9558
19250.000000, 80.736, -170.5660
19500.000000, 80.463, -164.7189
19750.000000, 79.779, -156.3625
20000.000000, 79.149, -146.3181
20300.000000, 78.403, -136.4340
20600.000000, 77.354, -128.3846
20900.000000, 75.930, -121.1572
21200.000000, 74.008, -115.3394
21400.000000, 72.295, -112.0862
21800.000000, 67.412, -103.2297
22000.000000, 64.126, -94.2665
22400.000000, 55.907, -66.2311
22700.000000, 48.667, -51.4156
23000.000000, 40.795, -49.9516
23300.000000, 33.368, -3.1587
23600.000000, 29.519, 10.8537
24000.000000, 28.631, 87.4891
