* Measurement data measured by REW V5.31
* Source: Headset (DS by VECLAN.COM), MICROPHONE (Master Volume), L, volume: 0.720. Timing signal peak level -13.9 dBFS, measurement signal peak level -12.1 dBFS
* Format: 4M Log Swept Sine, 1 sweep at -12.0 dBFS using an acoustic timing reference
* Dated: Apr 13, 2024 8:39:35 PM
* REW Settings:
*  C-weighting compensation: Off
*  Target level: 85.0 dB
* Note: ; Delay -0.1600 ms (-55 mm, -2.16 in) using estimated IR delay relative to Acoustic reference played from HEADPHONE L with no timing offset
* Measurement: L2
* Smoothing: 1/24 octave
* Frequency Step: 1/48 octave
* Start Frequency: 1.000 Hz
*
* Freq(Hz), SPL(dB), Phase(degrees)
1.000000, 47.404, 0.3867
1.015000, 47.072, 1.2133
1.030000, 46.766, 2.1804
1.044000, 46.506, 3.2320
1.060000, 46.244, 4.6397
1.075000, 46.035, 6.1914
1.090000, 45.863, 8.0034
1.106000, 45.723, 10.2770
1.120000, 45.633, 12.6176
1.138000, 45.555, 16.1894
1.150000, 45.526, 18.9575
1.172000, 45.516, 24.8979
1.180000, 45.526, 27.3407
1.206000, 45.599, 36.3121
1.220000, 45.664, 41.7121
1.241000, 45.789, 50.2882
1.250000, 45.852, 54.0394
1.265000, 45.968, 60.2407
1.280000, 46.096, 66.2208
1.315000, 46.431, 78.5878
1.320000, 46.482, 80.1327
1.340000, 46.691, 85.7317
1.360000, 46.904, 90.4403
1.380000, 47.118, 94.3071
1.400000, 47.328, 97.4595
1.430000, 47.625, 101.0919
1.450000, 47.806, 102.9080
1.475000, 48.018, 104.6451
1.500000, 48.238, 105.9584
1.525000, 48.477, 106.9534
1.550000, 48.733, 107.6884
1.575000, 49.001, 108.1867
1.600000, 49.277, 108.4669
1.625000, 49.558, 108.5966
1.650000, 49.839, 108.5979
1.675000, 50.117, 108.4872
1.700000, 50.386, 108.2764
1.725000, 50.644, 107.9737
1.750000, 50.886, 107.5838
1.775000, 51.108, 107.0918
1.800000, 51.306, 106.4802
1.825000, 51.477, 105.7772
1.850000, 51.622, 104.9677
1.875000, 51.744, 104.0458
1.900000, 51.845, 103.0280
1.925000, 51.930, 101.9354
1.950000, 51.999, 100.7875
1.975000, 52.054, 99.5828
2.000000, 52.099, 98.3172
2.030000, 52.141, 96.7752
2.060000, 52.173, 95.2156
2.090000, 52.200, 93.6435
2.120000, 52.225, 92.0596
2.140000, 52.243, 90.9954
2.180000, 52.284, 88.8120
2.200000, 52.308, 87.6672
2.240000, 52.352, 85.2408
2.270000, 52.378, 83.2918
2.300000, 52.398, 81.2587
2.330000, 52.414, 79.1692
2.360000, 52.426, 77.0476
2.400000, 52.440, 74.1557
2.430000, 52.450, 71.9888
2.470000, 52.466, 69.1312
2.500000, 52.481, 67.0185
2.540000, 52.509, 64.2388
2.580000, 52.546, 61.4334
2.620000, 52.588, 58.4860
2.650000, 52.623, 56.2032
2.690000, 52.673, 53.1051
2.720000, 52.712, 50.7722
2.760000, 52.768, 47.6922
2.800000, 52.825, 44.6426
2.850000, 52.900, 40.9683
2.900000, 52.978, 37.4791
2.950000, 53.060, 34.1205
3.000000, 53.149, 30.7115
3.040000, 53.225, 27.9493
3.070000, 53.283, 25.8888
3.110000, 53.362, 23.1889
3.150000, 53.441, 20.5750
3.200000, 53.536, 17.4415
3.250000, 53.625, 14.5103
3.300000, 53.706, 11.7853
3.350000, 53.781, 9.1526
3.400000, 53.853, 6.5015
3.450000, 53.920, 3.8830
3.500000, 53.982, 1.3655
3.550000, 54.036, -0.9977
3.600000, 54.080, -3.1880
3.650000, 54.112, -5.1683
3.700000, 54.132, -6.9800
3.750000, 54.140, -8.7130
3.820000, 54.135, -11.0606
3.870000, 54.121, -12.6234
3.950000, 54.084, -14.8071
4.000000, 54.054, -15.9393
4.060000, 54.009, -17.0411
4.120000, 53.947, -17.9234
4.180000, 53.874, -18.6325
4.250000, 53.784, -19.2574
4.310000, 53.714, -19.5660
4.370000, 53.659, -19.6408
4.440000, 53.612, -19.4243
4.500000, 53.579, -18.9536
4.550000, 53.558, -18.3946
4.620000, 53.549, -17.4579
4.680000, 53.570, -16.5575
4.750000, 53.638, -15.4454
4.820000, 53.760, -14.2550
4.870000, 53.878, -13.3234
4.940000, 54.076, -11.9777
5.000000, 54.272, -10.9004
5.080000, 54.559, -9.7056
5.150000, 54.831, -8.9187
5.220000, 55.132, -8.3141
5.300000, 55.505, -7.7927
5.380000, 55.889, -7.5034
5.450000, 56.217, -7.5048
5.520000, 56.528, -7.7363
5.600000, 56.873, -8.2416
5.700000, 57.287, -9.1329
5.800000, 57.666, -10.2306
5.900000, 57.997, -11.5488
6.000000, 58.282, -13.1019
6.080000, 58.479, -14.4491
6.150000, 58.628, -15.6255
6.220000, 58.754, -16.7962
6.300000, 58.869, -18.1510
6.400000, 58.971, -19.9051
6.500000, 59.030, -21.6155
6.600000, 59.051, -23.1478
6.700000, 59.030, -24.5475
6.800000, 58.972, -25.8363
6.900000, 58.889, -26.9242
7.000000, 58.788, -27.7120
7.100000, 58.665, -28.2258
7.200000, 58.533, -28.4820
7.300000, 58.413, -28.4671
7.400000, 58.312, -28.1330
7.500000, 58.230, -27.5019
7.620000, 58.175, -26.4833
7.750000, 58.199, -25.2058
7.880000, 58.311, -23.7849
8.000000, 58.477, -22.5573
8.120000, 58.700, -21.6009
8.250000, 59.002, -20.8528
8.380000, 59.333, -20.4642
8.500000, 59.640, -20.4880
8.620000, 59.947, -20.8171
8.750000, 60.265, -21.4283
8.850000, 60.488, -22.0556
9.000000, 60.787, -23.2065
9.120000, 60.997, -24.1954
9.250000, 61.192, -25.2681
9.380000, 61.356, -26.3275
9.500000, 61.490, -27.2220
9.620000, 61.612, -27.9859
9.750000, 61.731, -28.6851
9.880000, 61.845, -29.2475
10.000000, 61.951, -29.6240
10.150000, 62.088, -29.9911
10.300000, 62.246, -30.2853
10.440000, 62.417, -30.5232
10.600000, 62.634, -30.8545
10.750000, 62.859, -31.2996
10.900000, 63.094, -31.8790
11.060000, 63.338, -32.7077
11.200000, 63.540, -33.6134
11.380000, 63.764, -34.8838
11.500000, 63.885, -35.7763
11.720000, 64.047, -37.3528
11.800000, 64.087, -37.8668
12.060000, 64.159, -39.2290
12.200000, 64.173, -39.6880
12.410000, 64.183, -39.9176
12.500000, 64.193, -39.8359
12.650000, 64.224, -39.4736
12.800000, 64.287, -38.9062
13.150000, 64.602, -37.2924
13.200000, 64.665, -37.0955
13.400000, 64.961, -36.4778
13.600000, 65.291, -36.2522
13.800000, 65.624, -36.4732
14.000000, 65.929, -37.0923
14.300000, 66.287, -38.6107
14.500000, 66.444, -39.7508
14.750000, 66.551, -41.0466
15.000000, 66.581, -41.9873
15.250000, 66.577, -42.4570
15.500000, 66.580, -42.3910
15.750000, 66.626, -41.9024
16.000000, 66.739, -41.2248
16.250000, 66.916, -40.6625
16.500000, 67.137, -40.3469
16.750000, 67.370, -40.3519
17.000000, 67.593, -40.6358
17.250000, 67.791, -41.1262
17.500000, 67.960, -41.6802
17.750000, 68.107, -42.2019
18.000000, 68.243, -42.6510
18.250000, 68.380, -43.0458
18.500000, 68.524, -43.3969
18.750000, 68.677, -43.7381
19.000000, 68.835, -44.0958
19.250000, 68.996, -44.5001
19.500000, 69.157, -44.9135
19.750000, 69.316, -45.3197
20.000000, 69.476, -45.7097
20.299999, 69.673, -46.1963
20.600000, 69.874, -46.6974
20.900000, 70.075, -47.2392
21.200001, 70.267, -47.8380
21.400000, 70.385, -48.2442
21.799999, 70.598, -48.9699
22.000000, 70.696, -49.2538
22.400000, 70.892, -49.6560
22.700001, 71.054, -49.8249
23.000000, 71.234, -49.9676
23.299999, 71.428, -50.1876
23.600000, 71.625, -50.5138
24.000000, 71.869, -51.0891
24.299999, 72.029, -51.5657
24.700001, 72.217, -52.1050
25.000000, 72.351, -52.3905
25.400000, 72.542, -52.6716
25.799999, 72.753, -52.9407
26.200001, 72.976, -53.3319
26.500000, 73.138, -53.7230
26.900000, 73.337, -54.3065
27.200001, 73.474, -54.7402
27.600000, 73.648, -55.2542
28.000000, 73.825, -55.6957
28.500000, 74.059, -56.2496
29.000000, 74.299, -56.8730
29.500000, 74.531, -57.5733
30.000000, 74.754, -58.2965
30.400000, 74.926, -58.9042
30.700001, 75.049, -59.3747
31.100000, 75.200, -60.0089
31.500000, 75.334, -60.6071
32.000000, 75.485, -61.1772
32.500000, 75.644, -61.5324
33.000000, 75.834, -61.7892
33.500000, 76.049, -62.1565
34.000000, 76.265, -62.7001
34.500000, 76.464, -63.3496
35.000000, 76.645, -63.9818
35.500000, 76.822, -64.5691
36.000000, 77.001, -65.1472
36.500000, 77.179, -65.7564
37.000000, 77.352, -66.3819
37.500000, 77.522, -67.0089
38.200001, 77.762, -67.8988
38.700001, 77.931, -68.5780
39.500000, 78.188, -69.7042
40.000000, 78.340, -70.3814
40.599998, 78.523, -71.1616
41.200001, 78.709, -71.9250
41.799999, 78.899, -72.7151
42.500000, 79.118, -73.7224
43.099998, 79.292, -74.6492
43.700001, 79.447, -75.5518
44.400002, 79.621, -76.4858
45.000000, 79.781, -77.2609
45.500000, 79.916, -77.9840
46.200001, 80.086, -79.1094
46.799999, 80.206, -80.0450
47.500000, 80.340, -80.9986
48.200001, 80.483, -81.9055
48.700001, 80.586, -82.5925
49.400002, 80.715, -83.5796
50.000000, 80.811, -84.3606
50.799999, 80.935, -85.2182
51.500000, 81.059, -85.8504
52.200001, 81.198, -86.5038
53.000000, 81.356, -87.3204
53.799999, 81.503, -88.1444
54.500000, 81.629, -88.8452
55.200001, 81.753, -89.5172
56.000000, 81.905, -90.2463
57.000000, 82.121, -91.2910
58.000000, 82.339, -92.6011
59.000000, 82.547, -94.2082
60.000000, 82.692, -96.0783
60.799999, 82.756, -97.3855
61.500000, 82.813, -98.3397
62.200001, 82.874, -99.2816
63.000000, 82.922, -100.3428
64.000000, 82.956, -101.3791
65.000000, 83.004, -102.1187
66.000000, 83.079, -102.7396
67.000000, 83.179, -103.3537
68.000000, 83.297, -104.0520
69.000000, 83.424, -104.8665
70.000000, 83.551, -105.8204
71.000000, 83.661, -106.8748
72.000000, 83.751, -107.8846
73.000000, 83.840, -108.7957
74.000000, 83.934, -109.6936
75.000000, 84.027, -110.6359
76.199997, 84.127, -111.8213
77.500000, 84.220, -113.1336
78.800003, 84.292, -114.4240
80.000000, 84.351, -115.5495
81.199997, 84.409, -116.6067
82.500000, 84.478, -117.7207
83.800003, 84.545, -118.8483
85.000000, 84.602, -119.8625
86.199997, 84.660, -120.8470
87.500000, 84.722, -121.9147
88.500000, 84.769, -122.7309
90.000000, 84.834, -123.9500
91.199997, 84.883, -124.9107
92.500000, 84.928, -125.9330
93.800003, 84.967, -126.8933
95.000000, 85.000, -127.7792
96.199997, 85.022, -128.6282
97.500000, 85.049, -129.4436
98.800003, 85.091, -130.2604
100.000000, 85.135, -131.0663
101.500000, 85.184, -132.1521
103.000000, 85.217, -133.2694
104.400002, 85.231, -134.3514
106.000000, 85.225, -135.5947
107.500000, 85.206, -136.6962
109.000000, 85.194, -137.7191
110.599998, 85.185, -138.7770
112.000000, 85.173, -139.6376
113.800003, 85.146, -140.6730
115.000000, 85.123, -141.3627
117.199997, 85.077, -142.6991
118.000000, 85.060, -143.2112
120.599998, 84.993, -144.6388
122.000000, 84.973, -145.1609
124.099998, 84.946, -145.9724
125.000000, 84.924, -146.3339
126.500000, 84.879, -146.9165
128.000000, 84.832, -147.4850
131.500000, 84.754, -148.7883
132.000000, 84.743, -148.9929
134.000000, 84.689, -149.8306
136.000000, 84.624, -150.5797
138.000000, 84.573, -151.2280
140.000000, 84.526, -151.7659
143.000000, 84.446, -152.3571
145.000000, 84.382, -152.8162
147.500000, 84.310, -153.5093
150.000000, 84.253, -154.0747
152.500000, 84.202, -154.4048
155.000000, 84.118, -154.7471
157.500000, 84.014, -154.9878
160.000000, 83.944, -155.1986
162.500000, 83.893, -155.4406
165.000000, 83.832, -155.6660
167.500000, 83.767, -155.8759
170.000000, 83.709, -156.1513
172.500000, 83.655, -156.3986
175.000000, 83.593, -156.5598
177.500000, 83.514, -156.7072
180.000000, 83.436, -156.9386
182.500000, 83.369, -157.1888
185.000000, 83.309, -157.2062
187.500000, 83.230, -157.2002
190.000000, 83.129, -157.3126
192.500000, 83.060, -157.3142
195.000000, 83.043, -157.2790
197.500000, 83.009, -157.2277
200.000000, 82.941, -157.1710
203.000000, 82.861, -157.2979
206.000000, 82.786, -157.3675
209.000000, 82.721, -157.2348
212.000000, 82.640, -156.9883
214.000000, 82.587, -156.7462
218.000000, 82.491, -156.4440
220.000000, 82.443, -156.3621
224.000000, 82.345, -156.1334
227.000000, 82.265, -155.8319
230.000000, 82.179, -155.4355
233.000000, 82.105, -154.8896
236.000000, 82.050, -154.2518
240.000000, 82.002, -153.5724
243.000000, 81.969, -153.3285
247.000000, 81.904, -152.9236
250.000000, 81.849, -152.5921
254.000000, 81.778, -152.1431
258.000000, 81.722, -151.5120
262.000000, 81.666, -150.8593
265.000000, 81.621, -150.4029
269.000000, 81.558, -149.7789
272.000000, 81.519, -149.2443
276.000000, 81.486, -148.5197
280.000000, 81.454, -147.9121
285.000000, 81.403, -147.2700
290.000000, 81.340, -146.3257
295.000000, 81.286, -145.1579
300.000000, 81.252, -144.1917
304.000000, 81.230, -143.3521
307.000000, 81.225, -142.6690
311.000000, 81.241, -141.8570
315.000000, 81.269, -141.1633
320.000000, 81.293, -140.4633
325.000000, 81.284, -139.8961
330.000000, 81.268, -139.1887
335.000000, 81.255, -138.3488
340.000000, 81.234, -137.5828
345.000000, 81.211, -136.7796
350.000000, 81.196, -135.7651
355.000000, 81.200, -134.7190
360.000000, 81.223, -133.7738
365.000000, 81.238, -132.9921
370.000000, 81.233, -132.2069
375.000000, 81.232, -131.5183
382.000000, 81.226, -130.4571
387.000000, 81.195, -129.6680
395.000000, 81.128, -128.3226
400.000000, 81.095, -127.2636
406.000000, 81.069, -125.9921
412.000000, 81.056, -124.7036
418.000000, 81.074, -123.4315
425.000000, 81.095, -122.0063
431.000000, 81.095, -120.6448
437.000000, 81.092, -119.3351
444.000000, 81.114, -117.8358
450.000000, 81.148, -116.4884
455.000000, 81.175, -115.3746
462.000000, 81.202, -113.8014
468.000000, 81.236, -112.3723
475.000000, 81.302, -110.6942
482.000000, 81.386, -109.0919
487.000000, 81.441, -107.9539
494.000000, 81.515, -106.4025
500.000000, 81.596, -105.0625
508.000000, 81.735, -103.2309
515.000000, 81.867, -101.8603
522.000000, 81.984, -100.6671
530.000000, 82.102, -99.1911
538.000000, 82.226, -97.7096
545.000000, 82.340, -96.3826
552.000000, 82.474, -94.9206
560.000000, 82.643, -93.5341
570.000000, 82.828, -91.9743
580.000000, 83.003, -90.2852
590.000000, 83.195, -88.5192
600.000000, 83.411, -86.8520
608.000000, 83.579, -85.6384
615.000000, 83.706, -84.5975
622.000000, 83.827, -83.5228
630.000000, 83.982, -82.1811
640.000000, 84.215, -80.4992
650.000000, 84.475, -79.1225
660.000000, 84.712, -77.9758
670.000000, 84.932, -76.6314
680.000000, 85.183, -75.3392
690.000000, 85.448, -74.2835
700.000000, 85.705, -73.4039
710.000000, 85.948, -72.6308
720.000000, 86.175, -72.0236
730.000000, 86.370, -71.3570
740.000000, 86.563, -70.5699
750.000000, 86.748, -69.7529
762.000000, 86.992, -68.6215
775.000000, 87.274, -67.6355
788.000000, 87.557, -66.6586
800.000000, 87.846, -65.9120
812.000000, 88.124, -65.4420
825.000000, 88.408, -65.0576
838.000000, 88.664, -64.8861
850.000000, 88.878, -64.7903
862.000000, 89.045, -64.8523
875.000000, 89.180, -64.6152
885.000000, 89.286, -64.2898
900.000000, 89.440, -63.8046
912.000000, 89.552, -63.3391
925.000000, 89.660, -62.7095
938.000000, 89.773, -61.7053
950.000000, 89.932, -60.5495
962.000000, 90.148, -59.6061
975.000000, 90.395, -59.1308
988.000000, 90.572, -59.0197
1000.000000, 90.700, -58.6196
1015.000000, 90.880, -58.0220
1030.000000, 91.046, -57.6417
1044.000000, 91.142, -57.1286
1060.000000, 91.254, -55.9234
1075.000000, 91.438, -54.4512
1090.000000, 91.706, -53.2582
1106.000000, 92.019, -52.4922
1120.000000, 92.279, -52.1032
1138.000000, 92.562, -51.7357
1150.000000, 92.755, -51.3008
1172.000000, 93.173, -50.9865
1180.000000, 93.303, -51.1674
1206.000000, 93.554, -51.5416
1220.000000, 93.682, -51.0498
1241.000000, 93.966, -50.3653
1250.000000, 94.102, -50.2124
1265.000000, 94.313, -50.2021
1280.000000, 94.483, -50.2374
1315.000000, 94.873, -49.8099
1320.000000, 94.936, -49.7815
1340.000000, 95.158, -49.9710
1360.000000, 95.274, -50.1652
1380.000000, 95.379, -49.6895
1400.000000, 95.573, -49.2411
1430.000000, 95.832, -49.0103
1450.000000, 95.998, -48.7001
1475.000000, 96.222, -48.3204
1500.000000, 96.429, -48.1695
1525.000000, 96.608, -47.8793
1550.000000, 96.805, -47.4237
1575.000000, 97.029, -47.2346
1600.000000, 97.209, -47.2639
1625.000000, 97.369, -47.1283
1650.000000, 97.554, -46.9617
1675.000000, 97.702, -47.1792
1700.000000, 97.801, -47.0362
1725.000000, 97.945, -46.7754
1750.000000, 98.066, -46.7588
1775.000000, 98.169, -46.4905
1800.000000, 98.300, -46.2527
1825.000000, 98.411, -46.1007
1850.000000, 98.521, -45.7719
1875.000000, 98.659, -45.4639
1900.000000, 98.797, -45.3442
1925.000000, 98.925, -45.3019
1950.000000, 99.039, -45.2990
1975.000000, 99.146, -45.2333
2000.000000, 99.261, -45.1806
2030.000000, 99.408, -45.2030
2060.000000, 99.582, -45.4384
2090.000000, 99.724, -46.2514
2120.000000, 99.769, -47.2482
2140.000000, 99.764, -47.7698
2180.000000, 99.713, -48.7242
2200.000000, 99.637, -49.1035
2240.000000, 99.459, -49.2419
2270.000000, 99.317, -48.9983
2300.000000, 99.191, -48.2907
2330.000000, 99.123, -47.5136
2360.000000, 99.067, -46.7547
2400.000000, 99.038, -45.8068
2430.000000, 99.013, -45.2254
2470.000000, 99.020, -44.3507
2500.000000, 99.065, -44.1230
2540.000000, 99.039, -44.5734
2580.000000, 98.867, -45.1126
2620.000000, 98.586, -45.1755
2650.000000, 98.333, -44.9215
2690.000000, 97.918, -44.0378
2720.000000, 97.579, -42.6903
2760.000000, 97.124, -39.8799
2800.000000, 96.775, -35.5718
2850.000000, 96.697, -28.7494
2900.000000, 97.214, -22.8067
2950.000000, 97.923, -20.7242
3000.000000, 98.410, -21.3040
3040.000000, 98.598, -22.3540
3070.000000, 98.648, -23.1939
3110.000000, 98.641, -24.1830
3150.000000, 98.559, -25.3018
3200.000000, 98.321, -26.4733
3250.000000, 97.986, -27.3229
3300.000000, 97.583, -27.8239
3350.000000, 97.102, -28.2415
3400.000000, 96.516, -28.4933
3450.000000, 95.803, -28.2222
3500.000000, 95.016, -27.2978
3550.000000, 94.157, -26.0296
3600.000000, 93.166, -24.6935
3650.000000, 91.880, -23.2361
3700.000000, 90.076, -19.7699
3750.000000, 87.765, -9.6457
3820.000000, 85.640, 28.6871
3870.000000, 86.930, 59.4356
3950.000000, 90.795, 80.8473
4000.000000, 92.888, 85.3045
4060.000000, 94.918, 87.1003
4120.000000, 96.524, 87.0726
4180.000000, 97.818, 86.2118
4250.000000, 99.071, 84.6435
4310.000000, 99.962, 82.7346
4370.000000, 100.667, 80.4063
4440.000000, 101.280, 77.5205
4500.000000, 101.640, 74.9637
4550.000000, 101.831, 72.9889
4620.000000, 101.969, 70.5033
4680.000000, 101.980, 68.6967
4750.000000, 101.881, 67.0489
4820.000000, 101.688, 65.9744
4870.000000, 101.502, 65.5861
4940.000000, 101.193, 65.7078
5000.000000, 100.911, 66.4681
5080.000000, 100.579, 68.3063
5150.000000, 100.364, 70.3269
5220.000000, 100.223, 72.4165
5300.000000, 100.113, 74.4993
5380.000000, 100.012, 76.2264
5450.000000, 99.892, 77.3939
5520.000000, 99.714, 78.4813
5600.000000, 99.461, 79.8718
5700.000000, 99.073, 81.4931
5800.000000, 98.514, 83.2541
5900.000000, 97.730, 85.9395
6000.000000, 96.839, 91.4200
6080.000000, 96.331, 96.9678
6150.000000, 95.916, 101.7079
6220.000000, 95.471, 107.4536
6300.000000, 95.156, 116.0405
6400.000000, 95.344, 127.1165
6500.000000, 95.957, 135.6079
6600.000000, 96.634, 141.4657
6700.000000, 97.254, 145.7454
6800.000000, 97.831, 148.9884
6900.000000, 98.385, 151.2364
7000.000000, 98.879, 152.4362
7100.000000, 99.249, 152.6910
7200.000000, 99.441, 152.2519
7300.000000, 99.426, 151.6810
7400.000000, 99.227, 151.4007
7500.000000, 98.887, 151.7705
7620.000000, 98.406, 153.2235
7750.000000, 97.887, 155.5520
7880.000000, 97.215, 158.3972
8000.000000, 96.462, 162.3074
8120.000000, 95.783, 167.9756
8250.000000, 95.398, 174.7749
8380.000000, 95.293, 179.6324
8500.000000, 95.098, -177.9240
8620.000000, 94.656, -176.0778
8750.000000, 93.910, -173.5739
8850.000000, 93.230, -170.6131
9000.000000, 92.265, -164.5367
9120.000000, 91.691, -158.7156
9250.000000, 91.477, -153.3399
9380.000000, 91.413, -151.9639
9500.000000, 90.945, -153.5009
9620.000000, 89.993, -154.9564
9750.000000, 88.681, -155.4415
9880.000000, 87.270, -155.5599
10000.000000, 85.901, -156.0677
10150.000000, 84.083, -158.4383
10300.000000, 82.144, -164.4941
10440.000000, 80.282, -175.6260
10600.000000, 78.490, 163.5615
10750.000000, 77.978, 140.8118
10900.000000, 78.773, 124.2479
11060.000000, 80.365, 115.5758
11200.000000, 81.839, 112.2403
11380.000000, 83.407, 110.3956
11500.000000, 84.143, 110.1812
11720.000000, 84.875, 112.9623
11800.000000, 85.024, 115.3628
12060.000000, 85.593, 128.0829
12200.000000, 86.201, 136.9948
12410.000000, 87.611, 149.8618
12500.000000, 88.351, 154.5713
12650.000000, 89.713, 160.9269
12800.000000, 91.122, 164.6313
13150.000000, 93.221, 163.7070
13200.000000, 93.327, 163.2711
13400.000000, 93.445, 162.3618
13600.000000, 93.369, 162.1692
13800.000000, 92.975, 160.5320
14000.000000, 91.692, 158.8971
14300.000000, 88.006, 169.7935
14500.000000, 85.806, -170.1135
14750.000000, 85.256, -133.4355
15000.000000, 87.811, -106.4808
15250.000000, 89.930, -99.5664
15500.000000, 90.724, -96.5452
15750.000000, 90.924, -91.3566
16000.000000, 90.987, -84.5404
16250.000000, 91.011, -76.7073
16500.000000, 91.181, -68.6374
16750.000000, 91.468, -62.4375
17000.000000, 91.537, -58.9257
17250.000000, 91.143, -57.1893
17500.000000, 90.105, -55.9422
17750.000000, 88.241, -52.5218
18000.000000, 85.699, -43.1203
18250.000000, 83.043, -25.2873
18500.000000, 81.080, 0.8880
18750.000000, 80.507, 29.4295
19000.000000, 80.974, 52.9639
19250.000000, 81.644, 70.2071
19500.000000, 81.981, 83.1387
19750.000000, 81.799, 94.1793
20000.000000, 81.032, 105.3661
20300.000000, 79.571, 121.4260
20600.000000, 78.174, 140.5649
20900.000000, 77.102, 159.0046
21200.000000, 75.916, 173.3651
21400.000000, 74.683, -179.6210
21800.000000, 70.165, -167.0321
22000.000000, 66.664, -156.9814
22400.000000, 57.428, -115.8850
22700.000000, 49.340, -71.1590
23000.000000, 40.988, -46.5308
23300.000000, 33.408, 16.1994
23600.000000, 29.172, 63.4309
24000.000000, 27.773, -154.7135
