* Measurement data measured by REW V5.31.1
* Source: Headset (DS by VECLAN.COM), MICROPHONE (Master Volume), L, volume: 0.710. Timing signal peak level -10.8 dBFS, measurement signal peak level -8.1 dBFS
* Format: 2M Log Swept Sine, 1 sweep at -12.0 dBFS using an acoustic timing reference
* Dated: May 25, 2024 4:16:56 PM
* REW Settings:
*  C-weighting compensation: Off
*  Target level: 85.0 dB
* Note: ; Delay -0.0719 ms (-25 mm, -0.97 in) using estimated IR delay relative to Acoustic reference played from HEADPHONE L with no timing offset
* Measurement: Shure SRH1840 L1
* Smoothing: 1/24 octave
* Frequency Step: 1/48 octave
* Start Frequency: 1.000 Hz
*
* Freq(Hz), SPL(dB), Phase(degrees)
1.000000, 62.268, -61.0314
1.015000, 62.386, -60.5388
1.030000, 62.504, -60.0396
1.044000, 62.614, -59.5677
1.060000, 62.742, -59.0212
1.075000, 62.862, -58.5019
1.090000, 62.985, -57.9756
1.106000, 63.118, -57.4052
1.120000, 63.237, -56.8964
1.138000, 63.393, -56.2289
1.150000, 63.499, -55.7765
1.172000, 63.694, -54.9409
1.180000, 63.766, -54.6404
1.206000, 63.999, -53.6537
1.220000, 64.125, -53.1181
1.241000, 64.312, -52.3119
1.250000, 64.391, -51.9659
1.265000, 64.522, -51.3895
1.280000, 64.651, -50.8145
1.315000, 64.941, -49.4832
1.320000, 64.981, -49.2948
1.340000, 65.136, -48.5466
1.360000, 65.283, -47.8077
1.380000, 65.421, -47.1192
1.400000, 65.548, -46.4592
1.430000, 65.718, -45.4990
1.450000, 65.816, -44.8817
1.475000, 65.917, -44.1438
1.500000, 65.993, -43.4373
1.525000, 66.045, -42.7463
1.550000, 66.076, -42.0654
1.575000, 66.090, -41.4132
1.600000, 66.090, -40.8042
1.625000, 66.079, -40.1970
1.650000, 66.061, -39.5896
1.675000, 66.038, -38.9798
1.700000, 66.015, -38.3659
1.725000, 65.993, -37.7464
1.750000, 65.978, -37.1195
1.775000, 65.971, -36.5016
1.800000, 65.977, -35.9124
1.825000, 65.997, -35.3509
1.850000, 66.029, -34.8997
1.875000, 66.070, -34.5207
1.900000, 66.116, -34.1558
1.925000, 66.166, -33.7977
1.950000, 66.220, -33.4486
1.975000, 66.278, -33.1287
2.000000, 66.339, -32.8572
2.030000, 66.416, -32.5546
2.060000, 66.495, -32.2835
2.090000, 66.577, -32.0475
2.120000, 66.659, -31.8498
2.140000, 66.714, -31.7407
2.180000, 66.823, -31.5992
2.200000, 66.877, -31.5728
2.240000, 66.987, -31.5450
2.270000, 67.072, -31.5343
2.300000, 67.159, -31.5320
2.330000, 67.248, -31.5403
2.360000, 67.338, -31.5616
2.400000, 67.459, -31.6612
2.430000, 67.551, -31.7624
2.470000, 67.674, -31.9268
2.500000, 67.766, -32.0743
2.540000, 67.887, -32.3052
2.580000, 68.008, -32.5889
2.620000, 68.129, -32.9282
2.650000, 68.220, -33.1881
2.690000, 68.342, -33.5419
2.720000, 68.433, -33.8129
2.760000, 68.555, -34.1811
2.800000, 68.677, -34.6001
2.850000, 68.828, -35.1474
2.900000, 68.978, -35.7165
2.950000, 69.126, -36.3063
3.000000, 69.273, -36.9376
3.040000, 69.390, -37.4565
3.070000, 69.478, -37.8461
3.110000, 69.593, -38.3657
3.150000, 69.709, -38.8857
3.200000, 69.853, -39.5670
3.250000, 69.996, -40.2644
3.300000, 70.139, -40.9633
3.350000, 70.281, -41.6590
3.400000, 70.424, -42.3819
3.450000, 70.565, -43.1112
3.500000, 70.706, -43.8329
3.550000, 70.847, -44.5467
3.600000, 70.987, -45.2805
3.650000, 71.127, -46.0197
3.700000, 71.266, -46.7519
3.750000, 71.405, -47.4745
3.820000, 71.599, -48.5042
3.870000, 71.737, -49.2359
3.950000, 71.957, -50.3892
4.000000, 72.094, -51.1227
4.060000, 72.259, -52.0052
4.120000, 72.423, -52.8740
4.180000, 72.588, -53.7353
4.250000, 72.779, -54.7568
4.310000, 72.941, -55.6192
4.370000, 73.102, -56.4773
4.440000, 73.287, -57.5037
4.500000, 73.445, -58.3752
4.550000, 73.575, -59.0925
4.620000, 73.755, -60.1102
4.680000, 73.908, -60.9760
4.750000, 74.082, -61.9725
4.820000, 74.253, -62.9832
4.870000, 74.374, -63.7050
4.940000, 74.540, -64.7032
5.000000, 74.679, -65.5587
5.080000, 74.858, -66.6864
5.150000, 75.010, -67.6517
5.220000, 75.156, -68.6294
5.300000, 75.318, -69.7399
5.380000, 75.472, -70.8223
5.450000, 75.601, -71.7540
5.520000, 75.725, -72.6528
5.600000, 75.859, -73.6681
5.700000, 76.016, -74.9162
5.800000, 76.163, -76.0980
5.900000, 76.299, -77.2120
6.000000, 76.423, -78.2712
6.080000, 76.516, -79.0871
6.150000, 76.593, -79.7509
6.220000, 76.666, -80.3785
6.300000, 76.746, -81.0415
6.400000, 76.838, -81.8056
6.500000, 76.926, -82.5015
6.600000, 77.012, -83.1059
6.700000, 77.096, -83.6302
6.800000, 77.178, -84.0773
6.900000, 77.261, -84.4648
7.000000, 77.348, -84.7843
7.100000, 77.439, -85.0439
7.200000, 77.533, -85.2528
7.300000, 77.631, -85.4386
7.400000, 77.735, -85.5988
7.500000, 77.844, -85.7422
7.620000, 77.980, -85.9030
7.750000, 78.132, -86.0925
7.880000, 78.290, -86.3024
8.000000, 78.437, -86.5146
8.120000, 78.583, -86.7651
8.250000, 78.739, -87.0736
8.380000, 78.891, -87.4081
8.500000, 79.024, -87.7445
8.620000, 79.152, -88.0996
8.750000, 79.284, -88.4895
8.850000, 79.379, -88.7868
9.000000, 79.514, -89.2231
9.120000, 79.616, -89.5577
9.250000, 79.722, -89.8970
9.380000, 79.824, -90.2104
9.500000, 79.917, -90.4817
9.620000, 80.010, -90.7270
9.750000, 80.109, -90.9722
9.880000, 80.204, -91.2128
10.000000, 80.284, -91.4262
10.150000, 80.378, -91.7289
10.300000, 80.468, -92.0451
10.440000, 80.549, -92.3579
10.600000, 80.641, -92.7451
10.750000, 80.727, -93.1456
10.900000, 80.812, -93.5784
11.060000, 80.900, -94.0980
11.200000, 80.974, -94.6143
11.380000, 81.060, -95.2893
11.500000, 81.111, -95.7404
11.720000, 81.195, -96.5496
11.800000, 81.223, -96.8323
12.060000, 81.311, -97.7248
12.200000, 81.358, -98.2090
12.410000, 81.429, -98.8851
12.500000, 81.459, -99.1574
12.650000, 81.508, -99.5895
12.800000, 81.556, -99.9976
13.150000, 81.670, -100.9206
13.200000, 81.687, -101.0529
13.400000, 81.753, -101.5557
13.600000, 81.817, -102.0053
13.800000, 81.882, -102.3921
14.000000, 81.947, -102.7108
14.300000, 82.055, -103.1329
14.500000, 82.137, -103.3403
14.750000, 82.254, -103.5570
15.000000, 82.389, -103.7823
15.250000, 82.542, -104.1306
15.500000, 82.696, -104.5778
15.750000, 82.839, -105.1149
16.000000, 82.958, -105.7007
16.250000, 83.052, -106.3038
16.500000, 83.120, -106.8018
16.750000, 83.172, -107.1249
17.000000, 83.223, -107.2499
17.250000, 83.289, -107.2284
17.500000, 83.377, -107.1023
17.750000, 83.492, -106.9707
18.000000, 83.627, -106.9292
18.250000, 83.773, -107.0617
18.500000, 83.912, -107.3599
18.750000, 84.033, -107.7845
19.000000, 84.131, -108.2717
19.250000, 84.203, -108.7661
19.500000, 84.257, -109.1791
19.750000, 84.302, -109.4744
20.000000, 84.349, -109.6532
20.299999, 84.421, -109.8005
20.600000, 84.517, -109.9406
20.900000, 84.633, -110.1780
21.200001, 84.755, -110.5967
21.400000, 84.833, -110.9770
21.799999, 84.963, -111.9062
22.000000, 85.012, -112.4130
22.400000, 85.079, -113.4219
22.700001, 85.111, -114.0697
23.000000, 85.138, -114.5899
23.299999, 85.172, -115.0108
23.600000, 85.221, -115.3557
24.000000, 85.314, -115.8002
24.299999, 85.400, -116.2089
24.700001, 85.521, -116.8758
25.000000, 85.606, -117.4509
25.400000, 85.704, -118.2750
25.799999, 85.787, -119.0661
26.200001, 85.860, -119.7970
26.500000, 85.912, -120.3099
26.900000, 85.976, -120.9440
27.200001, 86.017, -121.3774
27.600000, 86.065, -121.8537
28.000000, 86.113, -122.1734
28.500000, 86.197, -122.4197
29.000000, 86.317, -122.6813
29.500000, 86.449, -123.1565
30.000000, 86.556, -123.7895
30.400000, 86.616, -124.2872
30.700001, 86.654, -124.5939
31.100000, 86.708, -124.9242
31.500000, 86.774, -125.2428
32.000000, 86.866, -125.7213
32.500000, 86.948, -126.3216
33.000000, 87.010, -126.9314
33.500000, 87.063, -127.4828
34.000000, 87.120, -127.9811
34.500000, 87.180, -128.4846
35.000000, 87.237, -128.9811
35.500000, 87.291, -129.4338
36.000000, 87.353, -129.8347
36.500000, 87.426, -130.2520
37.000000, 87.501, -130.7401
37.500000, 87.567, -131.2910
38.200001, 87.636, -132.0169
38.700001, 87.680, -132.4471
39.500000, 87.764, -133.0751
40.000000, 87.819, -133.5079
40.599998, 87.875, -134.0759
41.200001, 87.919, -134.6178
41.799999, 87.961, -135.0992
42.500000, 88.019, -135.6476
43.099998, 88.073, -136.1800
43.700001, 88.122, -136.7724
44.400002, 88.166, -137.4558
45.000000, 88.200, -137.9880
45.500000, 88.231, -138.4117
46.200001, 88.277, -139.0121
46.799999, 88.310, -139.5165
47.500000, 88.347, -140.0428
48.200001, 88.389, -140.5747
48.700001, 88.412, -141.0256
49.400002, 88.407, -141.6688
50.000000, 88.370, -142.0319
50.799999, 88.326, -142.1374
51.500000, 88.322, -142.0497
52.200001, 88.358, -141.9515
53.000000, 88.454, -142.1231
53.799999, 88.538, -142.7742
54.500000, 88.575, -143.2352
55.200001, 88.680, -143.5303
56.000000, 88.868, -144.7449
57.000000, 88.840, -147.1088
58.000000, 88.654, -147.3115
59.000000, 88.753, -146.8826
60.000000, 88.842, -147.6937
60.799999, 88.821, -148.3481
61.500000, 88.773, -148.7846
62.200001, 88.699, -149.0688
63.000000, 88.612, -149.1349
64.000000, 88.533, -149.1715
65.000000, 88.442, -149.1766
66.000000, 88.373, -148.7666
67.000000, 88.389, -148.1595
68.000000, 88.477, -147.7811
69.000000, 88.586, -147.7338
70.000000, 88.689, -147.9291
71.000000, 88.769, -148.3825
72.000000, 88.797, -149.0028
73.000000, 88.764, -149.5573
74.000000, 88.679, -149.8242
75.000000, 88.577, -149.5663
76.199997, 88.522, -148.5143
77.500000, 88.641, -147.3011
78.800003, 88.852, -146.8747
80.000000, 89.069, -147.1555
81.199997, 89.210, -148.0454
82.500000, 89.273, -148.6442
83.800003, 89.332, -148.8821
85.000000, 89.404, -148.9315
86.199997, 89.485, -149.2132
87.500000, 89.546, -149.6791
88.500000, 89.592, -150.0929
90.000000, 89.668, -150.8487
91.199997, 89.725, -151.5214
92.500000, 89.773, -152.1474
93.800003, 89.800, -152.6497
95.000000, 89.803, -152.9997
96.199997, 89.800, -153.4401
97.500000, 89.759, -154.2291
98.800003, 89.653, -154.9722
100.000000, 89.536, -155.1446
101.500000, 89.428, -154.6512
103.000000, 89.325, -153.5785
104.400002, 89.264, -151.7437
106.000000, 89.374, -150.3635
107.500000, 89.487, -150.9655
109.000000, 89.598, -152.7398
110.599998, 89.584, -155.0421
112.000000, 89.607, -154.6389
113.800003, 89.940, -153.8751
115.000000, 90.108, -153.7582
117.199997, 90.233, -153.6700
118.000000, 90.243, -153.7138
120.599998, 90.257, -154.3039
122.000000, 90.288, -154.6673
124.099998, 90.360, -154.9317
125.000000, 90.394, -154.9783
126.500000, 90.447, -155.0983
128.000000, 90.494, -155.3475
131.500000, 90.613, -156.0916
132.000000, 90.633, -156.1683
134.000000, 90.705, -156.3800
136.000000, 90.770, -156.5639
138.000000, 90.820, -157.1143
140.000000, 90.862, -157.7476
143.000000, 90.954, -158.3744
145.000000, 91.044, -158.6620
147.500000, 91.090, -159.3428
150.000000, 91.092, -159.9003
152.500000, 91.100, -160.3955
155.000000, 91.108, -160.7747
157.500000, 91.111, -161.2348
160.000000, 91.114, -162.1464
162.500000, 91.104, -163.1178
165.000000, 91.091, -163.6340
167.500000, 91.114, -163.6091
170.000000, 91.149, -163.8769
172.500000, 91.143, -164.2819
175.000000, 91.148, -164.5890
177.500000, 91.152, -164.8091
180.000000, 91.152, -164.9914
182.500000, 91.138, -165.3820
185.000000, 91.127, -165.8158
187.500000, 91.146, -166.1074
190.000000, 91.167, -166.3774
192.500000, 91.117, -166.7360
195.000000, 91.038, -166.9481
197.500000, 91.016, -167.2455
200.000000, 91.043, -167.5211
203.000000, 91.095, -167.9175
206.000000, 91.060, -168.6748
209.000000, 91.016, -169.3289
212.000000, 90.976, -169.7849
214.000000, 90.963, -169.8231
218.000000, 90.976, -170.0314
220.000000, 91.001, -170.1339
224.000000, 91.035, -170.6147
227.000000, 91.010, -170.7966
230.000000, 90.971, -170.9526
233.000000, 90.928, -171.1940
236.000000, 90.884, -171.3978
240.000000, 90.814, -171.5758
243.000000, 90.765, -171.6674
247.000000, 90.734, -171.8092
250.000000, 90.711, -171.9005
254.000000, 90.677, -171.8718
258.000000, 90.636, -172.1622
262.000000, 90.628, -172.6764
265.000000, 90.621, -172.6845
269.000000, 90.602, -172.5982
272.000000, 90.592, -172.8395
276.000000, 90.538, -173.0335
280.000000, 90.427, -173.2056
285.000000, 90.345, -173.2499
290.000000, 90.289, -173.3690
295.000000, 90.165, -173.5372
300.000000, 90.004, -173.2267
304.000000, 89.901, -172.8938
307.000000, 89.837, -172.5111
311.000000, 89.782, -172.0022
315.000000, 89.772, -171.5829
320.000000, 89.811, -171.1835
325.000000, 89.885, -170.8354
330.000000, 89.918, -170.7785
335.000000, 89.914, -171.0049
340.000000, 89.937, -171.3045
345.000000, 89.941, -171.5123
350.000000, 89.906, -171.6827
355.000000, 89.872, -171.8056
360.000000, 89.831, -171.7186
365.000000, 89.760, -171.4238
370.000000, 89.672, -171.1237
375.000000, 89.609, -171.3201
382.000000, 89.578, -171.1531
387.000000, 89.554, -170.9413
395.000000, 89.489, -171.1131
400.000000, 89.453, -171.1770
406.000000, 89.418, -171.1419
412.000000, 89.372, -171.2610
418.000000, 89.310, -171.2390
425.000000, 89.223, -171.0857
431.000000, 89.126, -171.0102
437.000000, 89.010, -170.6234
444.000000, 88.874, -170.2163
450.000000, 88.802, -170.0847
455.000000, 88.756, -169.8633
462.000000, 88.679, -169.5614
468.000000, 88.584, -169.4327
475.000000, 88.462, -169.0587
482.000000, 88.347, -168.5962
487.000000, 88.265, -168.2914
494.000000, 88.146, -167.7059
500.000000, 88.039, -167.0298
508.000000, 87.905, -166.0537
515.000000, 87.787, -165.1353
522.000000, 87.657, -164.0622
530.000000, 87.567, -162.9728
538.000000, 87.522, -162.0244
545.000000, 87.473, -160.9127
552.000000, 87.429, -159.8399
560.000000, 87.388, -158.7380
570.000000, 87.388, -157.0594
580.000000, 87.372, -155.5569
590.000000, 87.326, -154.6080
600.000000, 87.287, -153.5261
608.000000, 87.266, -152.4797
615.000000, 87.239, -151.5162
622.000000, 87.204, -150.5130
630.000000, 87.164, -149.3297
640.000000, 87.124, -147.6743
650.000000, 87.109, -145.8554
660.000000, 87.126, -144.0529
670.000000, 87.178, -142.3938
680.000000, 87.233, -140.8595
690.000000, 87.284, -139.3761
700.000000, 87.362, -137.9515
710.000000, 87.455, -136.6185
720.000000, 87.549, -135.3839
730.000000, 87.645, -134.2074
740.000000, 87.748, -133.2635
750.000000, 87.844, -132.4276
762.000000, 87.915, -131.4865
775.000000, 87.930, -130.5221
788.000000, 87.884, -129.0855
800.000000, 87.850, -126.9611
812.000000, 87.931, -124.3129
825.000000, 88.153, -121.6737
838.000000, 88.457, -119.6120
850.000000, 88.784, -118.2710
862.000000, 89.085, -117.4544
875.000000, 89.333, -116.9723
885.000000, 89.490, -116.7501
900.000000, 89.712, -116.2878
912.000000, 89.875, -115.8172
925.000000, 90.030, -115.5084
938.000000, 90.165, -115.2618
950.000000, 90.283, -114.9381
962.000000, 90.392, -114.5630
975.000000, 90.505, -114.0870
988.000000, 90.608, -113.6458
1000.000000, 90.709, -113.4573
1015.000000, 90.807, -113.2183
1030.000000, 90.874, -112.8328
1044.000000, 90.940, -112.2173
1060.000000, 91.015, -111.4580
1075.000000, 91.069, -110.7304
1090.000000, 91.106, -109.9103
1106.000000, 91.182, -108.6637
1120.000000, 91.326, -107.4931
1138.000000, 91.547, -106.5611
1150.000000, 91.669, -106.1045
1172.000000, 91.859, -105.1901
1180.000000, 91.924, -104.8301
1206.000000, 92.143, -103.6207
1220.000000, 92.273, -102.9482
1241.000000, 92.496, -102.0006
1250.000000, 92.598, -101.6269
1265.000000, 92.769, -101.1667
1280.000000, 92.923, -100.8764
1315.000000, 93.184, -100.3449
1320.000000, 93.203, -100.2560
1340.000000, 93.252, -99.4635
1360.000000, 93.349, -98.0908
1380.000000, 93.520, -96.9861
1400.000000, 93.691, -96.2211
1430.000000, 93.922, -95.0399
1450.000000, 94.089, -94.1892
1475.000000, 94.288, -93.0852
1500.000000, 94.534, -91.8463
1525.000000, 94.804, -91.0730
1550.000000, 95.030, -90.5564
1575.000000, 95.183, -90.2034
1600.000000, 95.285, -89.2798
1625.000000, 95.450, -87.9187
1650.000000, 95.646, -86.7760
1675.000000, 95.820, -85.3374
1700.000000, 96.075, -83.6885
1725.000000, 96.391, -82.4523
1750.000000, 96.697, -81.5773
1775.000000, 96.993, -80.8350
1800.000000, 97.282, -80.1942
1825.000000, 97.563, -79.4743
1850.000000, 97.869, -78.6749
1875.000000, 98.216, -78.0833
1900.000000, 98.551, -77.9327
1925.000000, 98.854, -77.8966
1950.000000, 99.149, -77.9316
1975.000000, 99.408, -78.0632
2000.000000, 99.656, -77.9719
2030.000000, 99.986, -77.8684
2060.000000, 100.316, -77.9702
2090.000000, 100.634, -78.1078
2120.000000, 100.965, -78.2565
2140.000000, 101.198, -78.4937
2180.000000, 101.632, -79.3794
2200.000000, 101.813, -79.8677
2240.000000, 102.172, -80.6432
2270.000000, 102.467, -81.3023
2300.000000, 102.752, -82.3221
2330.000000, 102.974, -83.5225
2360.000000, 103.153, -84.4790
2400.000000, 103.411, -85.4680
2430.000000, 103.615, -86.3416
2470.000000, 103.866, -87.5288
2500.000000, 104.057, -88.4735
2540.000000, 104.297, -89.8439
2580.000000, 104.509, -91.2436
2620.000000, 104.718, -92.6783
2650.000000, 104.858, -93.8739
2690.000000, 105.005, -95.3516
2720.000000, 105.123, -96.3167
2760.000000, 105.312, -97.7914
2800.000000, 105.469, -99.6045
2850.000000, 105.607, -101.8804
2900.000000, 105.730, -104.2837
2950.000000, 105.786, -106.9188
3000.000000, 105.767, -109.4372
3040.000000, 105.722, -111.3541
3070.000000, 105.666, -112.7825
3110.000000, 105.554, -114.5895
3150.000000, 105.396, -116.2226
3200.000000, 105.130, -117.8424
3250.000000, 104.852, -118.3175
3300.000000, 104.788, -118.1394
3350.000000, 104.793, -119.3647
3400.000000, 104.663, -120.8440
3450.000000, 104.497, -121.9629
3500.000000, 104.329, -123.0304
3550.000000, 104.133, -124.0141
3600.000000, 103.910, -124.8162
3650.000000, 103.676, -125.3016
3700.000000, 103.462, -125.5672
3750.000000, 103.257, -125.8714
3820.000000, 102.929, -126.0989
3870.000000, 102.697, -125.9227
3950.000000, 102.426, -125.4899
4000.000000, 102.282, -125.7395
4060.000000, 102.006, -126.2954
4120.000000, 101.642, -126.3529
4180.000000, 101.263, -125.8170
4250.000000, 100.859, -124.6524
4310.000000, 100.543, -123.4367
4370.000000, 100.242, -122.0889
4440.000000, 99.929, -120.3768
4500.000000, 99.674, -119.0719
4550.000000, 99.436, -117.9821
4620.000000, 99.054, -116.1439
4680.000000, 98.705, -113.9270
4750.000000, 98.338, -110.3589
4820.000000, 98.140, -105.8440
4870.000000, 98.140, -102.7143
4940.000000, 98.245, -98.9366
5000.000000, 98.405, -96.0559
5080.000000, 98.669, -93.2034
5150.000000, 98.859, -91.1080
5220.000000, 99.067, -88.8208
5300.000000, 99.406, -86.2115
5380.000000, 99.890, -84.1229
5450.000000, 100.396, -83.2159
5520.000000, 100.940, -83.2099
5600.000000, 101.584, -84.4905
5700.000000, 102.282, -88.4502
5800.000000, 102.680, -94.5170
5900.000000, 102.658, -101.6775
6000.000000, 102.210, -108.7411
6080.000000, 101.578, -113.7686
6150.000000, 100.830, -117.4091
6220.000000, 99.912, -120.0344
6300.000000, 98.688, -121.0334
6400.000000, 97.157, -118.1111
6500.000000, 96.172, -112.0795
6600.000000, 95.744, -107.9931
6700.000000, 95.236, -106.5549
6800.000000, 94.427, -104.8589
6900.000000, 93.467, -101.5079
7000.000000, 92.487, -95.6770
7100.000000, 91.759, -86.7760
7200.000000, 91.576, -76.7550
7300.000000, 91.852, -68.2583
7400.000000, 92.305, -62.0998
7500.000000, 92.744, -57.5176
7620.000000, 93.239, -52.7626
7750.000000, 93.885, -47.8797
7880.000000, 94.633, -44.3976
8000.000000, 95.267, -42.8943
8120.000000, 95.876, -41.8385
8250.000000, 96.737, -41.7593
8380.000000, 97.760, -44.7632
8500.000000, 98.622, -51.2979
8620.000000, 99.126, -61.6759
8750.000000, 98.890, -76.3372
8850.000000, 98.003, -88.4269
9000.000000, 95.461, -105.0607
9120.000000, 92.412, -114.8126
9250.000000, 88.208, -119.9505
9380.000000, 83.147, -118.6654
9500.000000, 77.942, -109.3227
9620.000000, 76.196, 34.1832
9750.000000, 79.992, 55.3709
9880.000000, 84.200, 63.9377
10000.000000, 87.720, 66.8303
10150.000000, 91.503, 62.9258
10300.000000, 94.360, 51.8465
10440.000000, 95.981, 37.1346
10600.000000, 96.472, 18.1609
10750.000000, 95.571, 1.5574
10900.000000, 93.447, -10.1656
11060.000000, 90.257, -12.8447
11200.000000, 87.365, -4.6578
11380.000000, 84.909, 20.3573
11500.000000, 84.962, 40.8667
11720.000000, 87.669, 63.5747
11800.000000, 88.870, 66.5789
12060.000000, 92.058, 62.0502
12200.000000, 92.753, 53.7764
12410.000000, 92.013, 42.4631
12500.000000, 91.231, 41.2366
12650.000000, 90.277, 45.5808
12800.000000, 90.487, 49.7074
13150.000000, 90.118, 39.9939
13200.000000, 89.761, 38.9783
13400.000000, 88.120, 39.1817
13600.000000, 86.906, 43.6351
13800.000000, 86.281, 47.1925
14000.000000, 85.862, 47.4850
14300.000000, 84.538, 42.0002
14500.000000, 82.851, 37.1214
14750.000000, 79.696, 29.7258
15000.000000, 75.334, 18.3742
15250.000000, 75.498, -173.5416
15500.000000, 79.095, 173.0362
15750.000000, 80.617, 159.7461
16000.000000, 80.848, 153.8244
16250.000000, 80.606, 152.5992
16500.000000, 79.933, 154.0370
16750.000000, 78.926, 160.0969
17000.000000, 78.254, 171.7112
17250.000000, 78.383, -177.5787
17500.000000, 78.443, -171.6166
17750.000000, 77.980, -165.4142
18000.000000, 77.373, -156.3288
18250.000000, 76.955, -144.8079
18500.000000, 77.043, -131.2683
18750.000000, 77.939, -117.7062
19000.000000, 79.492, -106.3132
19250.000000, 81.161, -99.2240
19500.000000, 82.332, -97.1712
19750.000000, 82.690, -98.1351
20000.000000, 82.263, -99.0818
20300.000000, 81.113, -98.5020
20600.000000, 79.551, -96.2065
20900.000000, 77.559, -91.9642
21200.000000, 75.178, -85.3414
21400.000000, 73.337, -79.9985
21800.000000, 68.665, -63.0322
22000.000000, 65.854, -47.8529
22400.000000, 59.030, -14.7524
22700.000000, 52.668, -1.2452
23000.000000, 45.309, 1.1399
23300.000000, 37.791, 50.4492
23600.000000, 32.975, 100.9025
24000.000000, 31.174, -75.1855
