* Measurement data measured by REW V5.31.3
* Source: Headset (DS by VECLAN.COM), MICROPHONE (Master Volume), L, volume: 0.720. Timing signal peak level -15.6 dBFS, measurement signal peak level -7.2 dBFS
* Format: 2M Log Swept Sine, 1 sweep at -24.8 dBFS using an acoustic timing reference
* Dated: Nov 16, 2024 10:07:25 PM
* REW Settings:
*  C-weighting compensation: Off
*  Target level: 85.0 dB
* Note: ; Delay -0.2252 ms (-77 mm, -3.04 in) using estimated IR delay relative to Acoustic reference played from SPEAKER R with no timing offset Clock adjustment: -26.3 ppm
* Measurement: aftermarket R5
* Smoothing: 1/24 octave
* Frequency Step: 1/48 octave
* Start Frequency: 1.000 Hz
*
* Freq(Hz), SPL(dB), Phase(degrees)
1.000000, 65.065, 6.3613
1.015000, 65.315, 4.7224
1.030000, 65.566, 3.0893
1.044000, 65.800, 1.5685
1.060000, 66.068, -0.1673
1.075000, 66.319, -1.7936
1.090000, 66.571, -3.4170
1.106000, 66.842, -5.1290
1.120000, 67.083, -6.5807
1.138000, 67.401, -8.3620
1.150000, 67.617, -9.4952
1.172000, 68.020, -11.4678
1.180000, 68.168, -12.1559
1.206000, 68.656, -14.2761
1.220000, 68.921, -15.3489
1.241000, 69.320, -16.8761
1.250000, 69.491, -17.5026
1.265000, 69.776, -18.5123
1.280000, 70.059, -19.4820
1.315000, 70.710, -21.6075
1.320000, 70.801, -21.8972
1.340000, 71.162, -23.0251
1.360000, 71.514, -24.1073
1.380000, 71.854, -25.1877
1.400000, 72.181, -26.2485
1.430000, 72.644, -27.7854
1.450000, 72.931, -28.7782
1.475000, 73.264, -29.9722
1.500000, 73.570, -31.0783
1.525000, 73.854, -32.0872
1.550000, 74.116, -33.0099
1.575000, 74.360, -33.8759
1.600000, 74.588, -34.7102
1.625000, 74.803, -35.4925
1.650000, 75.007, -36.2321
1.675000, 75.203, -36.9369
1.700000, 75.392, -37.6142
1.725000, 75.578, -38.2700
1.750000, 75.763, -38.9097
1.775000, 75.949, -39.5516
1.800000, 76.139, -40.2129
1.825000, 76.334, -40.8652
1.850000, 76.533, -41.4972
1.875000, 76.730, -42.0920
1.900000, 76.924, -42.6474
1.925000, 77.115, -43.1676
1.950000, 77.304, -43.6572
1.975000, 77.489, -44.1316
2.000000, 77.672, -44.6057
2.030000, 77.888, -45.1506
2.060000, 78.101, -45.6760
2.090000, 78.311, -46.1874
2.120000, 78.518, -46.6897
2.140000, 78.654, -47.0215
2.180000, 78.924, -47.7007
2.200000, 79.056, -48.0551
2.240000, 79.318, -48.7362
2.270000, 79.510, -49.2150
2.300000, 79.699, -49.6684
2.330000, 79.884, -50.1001
2.360000, 80.067, -50.5143
2.400000, 80.306, -51.0831
2.430000, 80.483, -51.5031
2.470000, 80.714, -52.0526
2.500000, 80.886, -52.4605
2.540000, 81.111, -53.0022
2.580000, 81.333, -53.5530
2.620000, 81.552, -54.1136
2.650000, 81.712, -54.5161
2.690000, 81.923, -55.0320
2.720000, 82.079, -55.4058
2.760000, 82.283, -55.8888
2.800000, 82.483, -56.3963
2.850000, 82.729, -57.0258
2.900000, 82.970, -57.6499
2.950000, 83.206, -58.2689
3.000000, 83.437, -58.8977
3.040000, 83.618, -59.3944
3.070000, 83.751, -59.7580
3.110000, 83.926, -60.2323
3.150000, 84.098, -60.6968
3.200000, 84.309, -61.2965
3.250000, 84.515, -61.9025
3.300000, 84.718, -62.5036
3.350000, 84.915, -63.0957
3.400000, 85.108, -63.7002
3.450000, 85.297, -64.3014
3.500000, 85.481, -64.8890
3.550000, 85.661, -65.4636
3.600000, 85.838, -66.0540
3.650000, 86.011, -66.6473
3.700000, 86.180, -67.2342
3.750000, 86.345, -67.8143
3.820000, 86.570, -68.6392
3.870000, 86.726, -69.2214
3.950000, 86.969, -70.1276
4.000000, 87.116, -70.7024
4.060000, 87.288, -71.3932
4.120000, 87.455, -72.0757
4.180000, 87.616, -72.7541
4.250000, 87.799, -73.5557
4.310000, 87.950, -74.2216
4.370000, 88.098, -74.8710
4.440000, 88.264, -75.6380
4.500000, 88.401, -76.2863
4.550000, 88.512, -76.8178
4.620000, 88.663, -77.5666
4.680000, 88.788, -78.1920
4.750000, 88.929, -78.8924
4.820000, 89.066, -79.5904
4.870000, 89.160, -80.0832
4.940000, 89.288, -80.7560
5.000000, 89.394, -81.3274
5.080000, 89.531, -82.0671
5.150000, 89.647, -82.6808
5.220000, 89.760, -83.2906
5.300000, 89.884, -83.9691
5.380000, 90.004, -84.6193
5.450000, 90.106, -85.1790
5.520000, 90.206, -85.7078
5.600000, 90.316, -86.2922
5.700000, 90.450, -87.0005
5.800000, 90.580, -87.6705
5.900000, 90.709, -88.3119
6.000000, 90.837, -88.9159
6.080000, 90.938, -89.3853
6.150000, 91.026, -89.7766
6.220000, 91.113, -90.1705
6.300000, 91.213, -90.6060
6.400000, 91.337, -91.1320
6.500000, 91.461, -91.6535
6.600000, 91.585, -92.1689
6.700000, 91.710, -92.6910
6.800000, 91.835, -93.2064
6.900000, 91.958, -93.7305
7.000000, 92.078, -94.2570
7.100000, 92.197, -94.7948
7.200000, 92.313, -95.3336
7.300000, 92.427, -95.8823
7.400000, 92.538, -96.4338
7.500000, 92.647, -96.9950
7.620000, 92.773, -97.6686
7.750000, 92.903, -98.3957
7.880000, 93.025, -99.1319
8.000000, 93.131, -99.7971
8.120000, 93.231, -100.4498
8.250000, 93.333, -101.1424
8.380000, 93.429, -101.8047
8.500000, 93.512, -102.3868
8.620000, 93.590, -102.9387
8.750000, 93.671, -103.4982
8.850000, 93.732, -103.8999
9.000000, 93.821, -104.4516
9.120000, 93.892, -104.8586
9.250000, 93.970, -105.2632
9.380000, 94.049, -105.6298
9.500000, 94.124, -105.9525
9.620000, 94.203, -106.2535
9.750000, 94.289, -106.5635
9.880000, 94.372, -106.8658
10.000000, 94.443, -107.1359
10.150000, 94.525, -107.5031
10.300000, 94.604, -107.8747
10.440000, 94.675, -108.2297
10.600000, 94.757, -108.6515
10.750000, 94.834, -109.0694
10.900000, 94.912, -109.5077
11.060000, 94.995, -110.0290
11.200000, 95.065, -110.5483
11.380000, 95.149, -111.2275
11.500000, 95.199, -111.6843
11.720000, 95.281, -112.5124
11.800000, 95.309, -112.8057
12.060000, 95.391, -113.7373
12.200000, 95.432, -114.2371
12.410000, 95.492, -114.9302
12.500000, 95.516, -115.2043
12.650000, 95.555, -115.6312
12.800000, 95.593, -116.0254
13.150000, 95.689, -116.8930
13.200000, 95.705, -117.0192
13.400000, 95.769, -117.5155
13.600000, 95.836, -118.0116
13.800000, 95.904, -118.5184
14.000000, 95.970, -119.0432
14.300000, 96.060, -119.9152
14.500000, 96.110, -120.4923
14.750000, 96.161, -121.1786
15.000000, 96.205, -121.8070
15.250000, 96.248, -122.4121
15.500000, 96.291, -122.9492
15.750000, 96.333, -123.4305
16.000000, 96.375, -123.8776
16.250000, 96.415, -124.3461
16.500000, 96.447, -124.7840
16.750000, 96.470, -125.1634
17.000000, 96.485, -125.4440
17.250000, 96.496, -125.6137
17.500000, 96.511, -125.6121
17.750000, 96.543, -125.4396
18.000000, 96.602, -125.1460
18.250000, 96.698, -124.8397
18.500000, 96.829, -124.5941
18.750000, 96.991, -124.4959
19.000000, 97.170, -124.6067
19.250000, 97.353, -124.9749
19.500000, 97.525, -125.5481
19.750000, 97.678, -126.2778
20.000000, 97.805, -127.1018
20.299999, 97.924, -128.1654
20.600000, 98.013, -129.2005
20.900000, 98.078, -130.1627
21.200001, 98.127, -131.0577
21.400000, 98.153, -131.6147
21.799999, 98.192, -132.6246
22.000000, 98.205, -133.0782
22.400000, 98.221, -133.8926
22.700001, 98.228, -134.3787
23.000000, 98.235, -134.7488
23.299999, 98.248, -135.0233
23.600000, 98.274, -135.2113
24.000000, 98.333, -135.3894
24.299999, 98.397, -135.5371
24.700001, 98.504, -135.7939
25.000000, 98.594, -136.0574
25.400000, 98.721, -136.5412
25.799999, 98.849, -137.1549
26.200001, 98.972, -137.9028
26.500000, 99.058, -138.5430
26.900000, 99.161, -139.4693
27.200001, 99.228, -140.2118
27.600000, 99.302, -141.2372
28.000000, 99.358, -142.2713
28.500000, 99.405, -143.5647
29.000000, 99.431, -144.8008
29.500000, 99.439, -145.9674
30.000000, 99.432, -147.0555
30.400000, 99.418, -147.8858
30.700001, 99.404, -148.4759
31.100000, 99.382, -149.2300
31.500000, 99.358, -149.9665
32.000000, 99.319, -150.8645
32.500000, 99.266, -151.7325
33.000000, 99.199, -152.5271
33.500000, 99.123, -153.2522
34.000000, 99.043, -153.8996
34.500000, 98.956, -154.4832
35.000000, 98.855, -154.9870
35.500000, 98.741, -155.3737
36.000000, 98.620, -155.5995
36.500000, 98.498, -155.6777
37.000000, 98.376, -155.6222
37.500000, 98.251, -155.4319
38.200001, 98.077, -154.8408
38.700001, 97.967, -154.1669
39.500000, 97.838, -152.7315
40.000000, 97.791, -151.6607
40.599998, 97.774, -150.2559
41.200001, 97.810, -148.7579
41.799999, 97.903, -147.2815
42.500000, 98.077, -145.7401
43.099998, 98.269, -144.6534
43.700001, 98.490, -143.8042
44.400002, 98.771, -143.1485
45.000000, 99.023, -142.8797
45.500000, 99.235, -142.8559
46.200001, 99.519, -143.1308
46.799999, 99.741, -143.5934
47.500000, 99.973, -144.2521
48.200001, 100.187, -144.9874
48.700001, 100.330, -145.5690
49.400002, 100.517, -146.4623
50.000000, 100.660, -147.2680
50.799999, 100.834, -148.3852
51.500000, 100.969, -149.4469
52.200001, 101.077, -150.5288
53.000000, 101.180, -151.6803
53.799999, 101.273, -152.8904
54.500000, 101.328, -154.0269
55.200001, 101.348, -155.0899
56.000000, 101.356, -156.0982
57.000000, 101.371, -157.1754
58.000000, 101.382, -158.1745
59.000000, 101.406, -159.0115
60.000000, 101.445, -159.8342
60.799999, 101.474, -160.5527
61.500000, 101.496, -161.1141
62.200001, 101.523, -161.6318
63.000000, 101.559, -162.2543
64.000000, 101.597, -163.0160
65.000000, 101.629, -163.8257
66.000000, 101.658, -164.6416
67.000000, 101.681, -165.3983
68.000000, 101.708, -166.2085
69.000000, 101.729, -167.0719
70.000000, 101.741, -167.9191
71.000000, 101.750, -168.7734
72.000000, 101.754, -169.6463
73.000000, 101.744, -170.4706
74.000000, 101.729, -171.2120
75.000000, 101.720, -171.9094
76.199997, 101.705, -172.8049
77.500000, 101.671, -173.7125
78.800003, 101.637, -174.5289
80.000000, 101.609, -175.3856
81.199997, 101.559, -176.3479
82.500000, 101.461, -177.2581
83.800003, 101.371, -177.7049
85.000000, 101.330, -178.1808
86.199997, 101.268, -178.7519
87.500000, 101.195, -179.1129
88.500000, 101.150, -179.2980
90.000000, 101.117, -179.6146
91.199997, 101.087, 179.9225
92.500000, 101.033, 179.5020
93.800003, 100.964, 179.1771
95.000000, 100.905, 179.0120
96.199997, 100.865, 178.9148
97.500000, 100.840, 178.8958
98.800003, 100.853, 178.8875
100.000000, 100.894, 178.7456
101.500000, 100.961, 178.3437
103.000000, 101.024, 177.7538
104.400002, 101.063, 177.0683
106.000000, 101.084, 176.2686
107.500000, 101.091, 175.5299
109.000000, 101.095, 174.8328
110.599998, 101.098, 173.8789
112.000000, 101.043, 172.8801
113.800003, 100.927, 172.1137
115.000000, 100.870, 171.6041
117.199997, 100.758, 170.5132
118.000000, 100.723, 170.1665
120.599998, 100.620, 168.9572
122.000000, 100.562, 168.4330
124.099998, 100.483, 167.6212
125.000000, 100.438, 167.2649
126.500000, 100.362, 166.7794
128.000000, 100.272, 166.1736
131.500000, 100.009, 165.1277
132.000000, 99.972, 164.9889
134.000000, 99.824, 164.4833
136.000000, 99.698, 164.0403
138.000000, 99.587, 163.5885
140.000000, 99.469, 163.1386
143.000000, 99.282, 162.5250
145.000000, 99.152, 161.9588
147.500000, 98.990, 161.4020
150.000000, 98.862, 161.0992
152.500000, 98.712, 160.8849
155.000000, 98.544, 160.8507
157.500000, 98.386, 160.8150
160.000000, 98.237, 160.7428
162.500000, 98.083, 160.5515
165.000000, 97.916, 160.3194
167.500000, 97.754, 160.1308
170.000000, 97.610, 160.1908
172.500000, 97.459, 160.2310
175.000000, 97.264, 160.1658
177.500000, 97.054, 160.0558
180.000000, 96.851, 159.8939
182.500000, 96.645, 159.8267
185.000000, 96.414, 159.9344
187.500000, 96.167, 160.3609
190.000000, 95.919, 161.1066
192.500000, 95.680, 162.2275
195.000000, 95.479, 163.6821
197.500000, 95.334, 165.0707
200.000000, 95.233, 166.2271
203.000000, 95.134, 167.4714
206.000000, 95.076, 168.7444
209.000000, 95.036, 169.5876
212.000000, 94.926, 170.3295
214.000000, 94.826, 171.0752
218.000000, 94.689, 172.4061
220.000000, 94.642, 172.6242
224.000000, 94.504, 173.7405
227.000000, 94.436, 175.4624
230.000000, 94.386, 177.0818
233.000000, 94.332, 178.4688
236.000000, 94.303, 179.7188
240.000000, 94.312, -178.6934
243.000000, 94.323, -177.4478
247.000000, 94.330, -175.9081
250.000000, 94.352, -174.8911
254.000000, 94.420, -173.5674
258.000000, 94.495, -172.3250
262.000000, 94.551, -171.2815
265.000000, 94.602, -170.5928
269.000000, 94.696, -169.6632
272.000000, 94.769, -169.0197
276.000000, 94.827, -168.4991
280.000000, 94.885, -167.9495
285.000000, 95.019, -167.0632
290.000000, 95.127, -166.7481
295.000000, 95.210, -166.4117
300.000000, 95.290, -166.1131
304.000000, 95.339, -165.7684
307.000000, 95.368, -165.4750
311.000000, 95.399, -165.1554
315.000000, 95.424, -164.8470
320.000000, 95.467, -164.1721
325.000000, 95.524, -163.4805
330.000000, 95.565, -162.9093
335.000000, 95.617, -162.5726
340.000000, 95.717, -162.3342
345.000000, 95.770, -162.2045
350.000000, 95.822, -162.1185
355.000000, 95.917, -161.9478
360.000000, 95.975, -161.5278
365.000000, 95.977, -161.4395
370.000000, 95.972, -161.3834
375.000000, 95.984, -161.1191
382.000000, 96.012, -161.0156
387.000000, 96.020, -161.1154
395.000000, 96.072, -161.1473
400.000000, 96.130, -161.4557
406.000000, 96.187, -161.9980
412.000000, 96.177, -162.4443
418.000000, 96.120, -162.7945
425.000000, 96.078, -163.1298
431.000000, 96.019, -163.3824
437.000000, 95.928, -163.6348
444.000000, 95.792, -163.6731
450.000000, 95.658, -163.4243
455.000000, 95.564, -163.2002
462.000000, 95.464, -162.8157
468.000000, 95.411, -162.5288
475.000000, 95.339, -162.4998
482.000000, 95.207, -162.2428
487.000000, 95.107, -162.0090
494.000000, 94.941, -161.7316
500.000000, 94.750, -160.7717
508.000000, 94.732, -158.6963
515.000000, 95.021, -157.8896
522.000000, 95.366, -159.1126
530.000000, 95.408, -162.0174
538.000000, 95.020, -164.6614
545.000000, 94.576, -165.2459
552.000000, 94.171, -164.8342
560.000000, 93.793, -163.7177
570.000000, 93.413, -161.7238
580.000000, 93.158, -160.2309
590.000000, 92.916, -158.9537
600.000000, 92.659, -157.5142
608.000000, 92.494, -156.3826
615.000000, 92.332, -155.5524
622.000000, 92.144, -154.7921
630.000000, 91.902, -153.7789
640.000000, 91.639, -152.0430
650.000000, 91.417, -149.8256
660.000000, 91.190, -147.7367
670.000000, 90.983, -145.9336
680.000000, 90.754, -144.1308
690.000000, 90.516, -142.0677
700.000000, 90.272, -139.9493
710.000000, 90.074, -137.5607
720.000000, 89.895, -134.8033
730.000000, 89.718, -131.8187
740.000000, 89.598, -128.9826
750.000000, 89.540, -126.2763
762.000000, 89.506, -123.1622
775.000000, 89.461, -119.8985
788.000000, 89.411, -116.7736
800.000000, 89.360, -113.8200
812.000000, 89.368, -110.8864
825.000000, 89.380, -107.9104
838.000000, 89.386, -105.1986
850.000000, 89.392, -103.0552
862.000000, 89.344, -100.9355
875.000000, 89.219, -98.1513
885.000000, 89.122, -95.7099
900.000000, 89.002, -91.8730
912.000000, 88.931, -88.3678
925.000000, 88.897, -84.3300
938.000000, 88.911, -80.1622
950.000000, 88.988, -76.1105
962.000000, 89.119, -71.9416
975.000000, 89.341, -67.4058
988.000000, 89.662, -63.0038
1000.000000, 90.031, -59.3537
1015.000000, 90.530, -55.6022
1030.000000, 91.043, -52.4658
1044.000000, 91.525, -49.9367
1060.000000, 92.074, -47.4431
1075.000000, 92.565, -45.5195
1090.000000, 93.042, -43.8582
1106.000000, 93.565, -42.2121
1120.000000, 94.051, -40.9580
1138.000000, 94.694, -39.9153
1150.000000, 95.117, -39.5739
1172.000000, 95.889, -39.8493
1180.000000, 96.143, -40.3379
1206.000000, 96.794, -42.6174
1220.000000, 97.033, -44.0226
1241.000000, 97.285, -45.8978
1250.000000, 97.378, -46.6272
1265.000000, 97.518, -47.8398
1280.000000, 97.635, -49.1984
1315.000000, 97.679, -53.1149
1320.000000, 97.649, -53.6483
1340.000000, 97.461, -55.4935
1360.000000, 97.178, -56.8774
1380.000000, 96.837, -57.8161
1400.000000, 96.468, -58.2898
1430.000000, 95.885, -58.1782
1450.000000, 95.483, -57.6975
1475.000000, 94.974, -56.6746
1500.000000, 94.458, -55.3956
1525.000000, 93.900, -53.9120
1550.000000, 93.272, -52.0931
1575.000000, 92.580, -49.6252
1600.000000, 91.872, -46.3091
1625.000000, 91.195, -42.3246
1650.000000, 90.545, -37.9298
1675.000000, 89.891, -33.1845
1700.000000, 89.215, -27.9825
1725.000000, 88.504, -22.1295
1750.000000, 87.770, -15.3270
1775.000000, 87.036, -7.3403
1800.000000, 86.342, 2.1708
1825.000000, 85.766, 13.4445
1850.000000, 85.420, 26.4193
1875.000000, 85.425, 40.8114
1900.000000, 85.871, 55.6444
1925.000000, 86.746, 69.5765
1950.000000, 87.931, 81.6781
1975.000000, 89.289, 91.7048
2000.000000, 90.718, 99.7951
2030.000000, 92.436, 107.4335
2060.000000, 94.109, 113.4196
2090.000000, 95.747, 118.3362
2120.000000, 97.401, 122.3861
2140.000000, 98.525, 124.4677
2180.000000, 100.779, 126.7234
2200.000000, 101.876, 126.8334
2240.000000, 103.941, 125.1516
2270.000000, 105.335, 122.3709
2300.000000, 106.554, 118.4946
2330.000000, 107.568, 113.8090
2360.000000, 108.360, 108.6424
2400.000000, 109.077, 101.6563
2430.000000, 109.394, 96.7674
2470.000000, 109.588, 91.0817
2500.000000, 109.606, 87.5565
2540.000000, 109.513, 83.9174
2580.000000, 109.354, 81.4687
2620.000000, 109.187, 79.9878
2650.000000, 109.071, 79.3397
2690.000000, 108.934, 78.8991
2720.000000, 108.840, 78.8133
2760.000000, 108.725, 78.9596
2800.000000, 108.620, 79.3526
2850.000000, 108.501, 80.1133
2900.000000, 108.387, 81.0829
2950.000000, 108.264, 82.2967
3000.000000, 108.139, 83.9066
3040.000000, 108.062, 85.5162
3070.000000, 108.032, 86.8661
3110.000000, 108.039, 88.7264
3150.000000, 108.099, 90.4962
3200.000000, 108.229, 92.3653
3250.000000, 108.381, 93.7508
3300.000000, 108.534, 94.6908
3350.000000, 108.669, 95.1144
3400.000000, 108.754, 95.0477
3450.000000, 108.772, 94.6516
3500.000000, 108.719, 94.0147
3550.000000, 108.579, 93.2210
3600.000000, 108.346, 92.4340
3650.000000, 108.029, 91.7462
3700.000000, 107.629, 91.1885
3750.000000, 107.135, 90.8737
3820.000000, 106.304, 91.2287
3870.000000, 105.653, 92.1299
3950.000000, 104.540, 94.4918
4000.000000, 103.808, 96.6255
4060.000000, 102.925, 99.8301
4120.000000, 102.043, 103.5816
4180.000000, 101.151, 107.8559
4250.000000, 100.097, 113.6687
4310.000000, 99.206, 119.4961
4370.000000, 98.358, 126.0471
4440.000000, 97.456, 134.3670
4500.000000, 96.768, 141.8647
4550.000000, 96.248, 148.2557
4620.000000, 95.577, 157.3911
4680.000000, 95.043, 165.4914
4750.000000, 94.479, 175.4378
4820.000000, 94.029, -173.9990
4870.000000, 93.810, -166.2358
4940.000000, 93.665, -155.5078
5000.000000, 93.662, -146.8266
5080.000000, 93.742, -136.2574
5150.000000, 93.810, -127.7697
5220.000000, 93.843, -119.5336
5300.000000, 93.862, -109.9308
5380.000000, 93.947, -99.8916
5450.000000, 94.150, -91.0153
5520.000000, 94.483, -82.6414
5600.000000, 94.954, -74.1938
5700.000000, 95.526, -65.3080
5800.000000, 95.976, -57.5020
5900.000000, 96.350, -49.9041
6000.000000, 96.761, -42.5970
6080.000000, 97.133, -37.5122
6150.000000, 97.441, -33.9274
6220.000000, 97.673, -31.1579
6300.000000, 97.779, -28.7224
6400.000000, 97.613, -25.9960
6500.000000, 97.132, -22.4680
6600.000000, 96.472, -17.2754
6700.000000, 95.819, -10.4435
6800.000000, 95.284, -2.7711
6900.000000, 94.860, 4.9944
7000.000000, 94.493, 12.6974
7100.000000, 94.151, 20.3773
7200.000000, 93.821, 27.9589
7300.000000, 93.479, 35.3733
7400.000000, 93.112, 42.7194
7500.000000, 92.738, 50.1138
7620.000000, 92.333, 58.8411
7750.000000, 91.941, 67.4337
7880.000000, 91.368, 74.5400
8000.000000, 90.505, 80.2858
8120.000000, 89.254, 86.7859
8250.000000, 87.652, 97.1887
8380.000000, 86.606, 111.1036
8500.000000, 86.791, 120.0841
8620.000000, 87.499, 118.6578
8750.000000, 88.016, 105.1585
8850.000000, 88.254, 87.8345
9000.000000, 88.854, 56.1791
9120.000000, 89.507, 33.5364
9250.000000, 89.939, 16.7509
9380.000000, 89.908, 8.9143
9500.000000, 89.699, 9.4627
9620.000000, 89.720, 16.2559
9750.000000, 90.325, 27.5591
9880.000000, 91.473, 39.1592
10000.000000, 92.739, 48.2800
10150.000000, 94.271, 57.2218
10300.000000, 95.536, 64.4604
10440.000000, 96.512, 71.0193
10600.000000, 97.559, 78.1301
10750.000000, 98.342, 83.5515
10900.000000, 98.829, 89.0903
11060.000000, 99.340, 95.7188
11200.000000, 99.792, 100.1921
11380.000000, 99.801, 103.9199
11500.000000, 99.291, 107.5023
11720.000000, 97.945, 121.5009
11800.000000, 97.620, 128.8961
12060.000000, 97.918, 154.2014
12200.000000, 98.652, 164.7106
12410.000000, 99.726, 175.6008
12500.000000, 100.148, 179.0840
12650.000000, 100.810, -177.1211
12800.000000, 101.183, -176.4570
13150.000000, 99.351, -177.5205
13200.000000, 98.824, -176.6588
13400.000000, 96.459, -169.6790
13600.000000, 93.976, -156.9656
13800.000000, 91.958, -138.6008
14000.000000, 91.086, -120.3052
14300.000000, 90.892, -104.4917
14500.000000, 90.637, -101.7133
14750.000000, 89.923, -106.8813
15000.000000, 88.702, -122.1032
15250.000000, 87.194, -143.9545
15500.000000, 85.687, -159.7142
15750.000000, 85.310, -161.4762
16000.000000, 85.953, -156.6668
16250.000000, 85.985, -150.2902
16500.000000, 84.920, -136.5224
16750.000000, 84.193, -107.8046
17000.000000, 86.116, -74.2467
17250.000000, 89.109, -55.8652
17500.000000, 90.707, -50.7562
17750.000000, 89.976, -46.0223
18000.000000, 88.071, -29.8212
18250.000000, 86.866, -4.2242
18500.000000, 86.832, 23.6603
18750.000000, 87.832, 49.4283
19000.000000, 89.251, 68.2380
19250.000000, 89.942, 79.5955
19500.000000, 89.284, 89.8239
19750.000000, 87.720, 104.5612
20000.000000, 85.768, 125.3328
20300.000000, 83.881, 158.3865
20600.000000, 83.129, -172.0188
20900.000000, 82.424, -147.7059
21200.000000, 81.312, -128.4700
21400.000000, 79.786, -116.9480
21800.000000, 74.747, -78.9049
22000.000000, 72.431, -53.9187
22400.000000, 68.545, -16.2588
22700.000000, 64.615, 7.3198
23000.000000, 59.560, 30.1543
23300.000000, 53.280, 53.8395
23600.000000, 45.963, 81.1807
24000.000000, 37.630, 126.5063
