* Measurement data measured by REW V5.31.3
* Source: Headset (DS by VECLAN.COM), MICROPHONE (Master Volume), L, volume: 0.720. Timing signal peak level -29.9 dBFS, measurement signal peak level -11.9 dBFS
* Format: 2M Log Swept Sine, 1 sweep at -24.4 dBFS using an acoustic timing reference
* Dated: Nov 5, 2024 11:21:01 PM
* REW Settings:
*  C-weighting compensation: Off
*  Target level: 85.0 dB
* Note: ; Delay -1.2457 ms (-427 mm, -(1 ft 4.82 in)) using estimated IR delay relative to Acoustic reference played from HEADPHONE R with no timing offset Clock adjustment: -329.2 ppm
* Measurement: Bass Passive R4
* Smoothing: 1/24 octave
* Frequency Step: 1/48 octave
* Start Frequency: 1.000 Hz
*
* Freq(Hz), SPL(dB), Phase(degrees)
1.000000, 37.927, 177.5901
1.015000, 38.140, 173.1867
1.030000, 38.364, 169.2868
1.044000, 38.582, 166.0101
1.060000, 38.841, 162.6069
1.075000, 39.093, 159.6800
1.090000, 39.354, 156.9578
1.106000, 39.649, 154.2509
1.120000, 39.927, 152.0490
1.138000, 40.320, 149.4361
1.150000, 40.601, 147.8174
1.172000, 41.153, 145.0728
1.180000, 41.364, 144.1387
1.206000, 42.084, 141.3051
1.220000, 42.490, 139.8921
1.241000, 43.118, 137.8981
1.250000, 43.392, 137.0845
1.265000, 43.854, 135.7770
1.280000, 44.322, 134.5241
1.315000, 45.418, 131.7805
1.320000, 45.573, 131.4063
1.340000, 46.192, 129.9471
1.360000, 46.798, 128.5416
1.380000, 47.387, 127.1816
1.400000, 47.953, 125.8603
1.430000, 48.746, 123.9376
1.450000, 49.231, 122.6888
1.475000, 49.788, 121.1670
1.500000, 50.306, 119.7064
1.525000, 50.796, 118.3107
1.550000, 51.259, 116.9723
1.575000, 51.700, 115.6829
1.600000, 52.121, 114.4347
1.625000, 52.524, 113.2208
1.650000, 52.911, 112.0349
1.675000, 53.285, 110.8714
1.700000, 53.649, 109.7252
1.725000, 54.004, 108.5918
1.750000, 54.354, 107.4670
1.775000, 54.701, 106.3473
1.800000, 55.047, 105.2295
1.825000, 55.394, 104.1130
1.850000, 55.738, 103.0048
1.875000, 56.075, 101.9154
1.900000, 56.402, 100.8478
1.925000, 56.721, 99.8008
1.950000, 57.032, 98.7725
1.975000, 57.335, 97.7609
2.000000, 57.632, 96.7640
2.030000, 57.980, 95.5846
2.060000, 58.321, 94.4203
2.090000, 58.656, 93.2680
2.120000, 58.985, 92.1247
2.140000, 59.202, 91.3660
2.180000, 59.632, 89.8542
2.200000, 59.845, 89.1015
2.240000, 60.263, 87.6126
2.270000, 60.569, 86.5154
2.300000, 60.868, 85.4352
2.330000, 61.161, 84.3707
2.360000, 61.449, 83.3205
2.400000, 61.824, 81.9396
2.430000, 62.100, 80.9166
2.470000, 62.462, 79.5660
2.500000, 62.729, 78.5611
2.540000, 63.081, 77.2289
2.580000, 63.427, 75.9052
2.620000, 63.766, 74.5958
2.650000, 64.014, 73.6255
2.690000, 64.340, 72.3481
2.720000, 64.579, 71.4020
2.760000, 64.892, 70.1558
2.800000, 65.200, 68.9256
2.850000, 65.577, 67.4078
2.900000, 65.946, 65.9088
2.950000, 66.307, 64.4250
3.000000, 66.660, 62.9569
3.040000, 66.936, 61.7961
3.070000, 67.140, 60.9344
3.110000, 67.406, 59.7982
3.150000, 67.668, 58.6769
3.200000, 67.989, 57.2968
3.250000, 68.303, 55.9397
3.300000, 68.612, 54.6035
3.350000, 68.914, 53.2841
3.400000, 69.209, 51.9803
3.450000, 69.497, 50.6945
3.500000, 69.779, 49.4291
3.550000, 70.055, 48.1861
3.600000, 70.326, 46.9664
3.650000, 70.593, 45.7700
3.700000, 70.855, 44.5937
3.750000, 71.111, 43.4341
3.820000, 71.461, 41.8390
3.870000, 71.705, 40.7218
3.950000, 72.087, 38.9760
4.000000, 72.322, 37.9122
4.060000, 72.599, 36.6621
4.120000, 72.871, 35.4375
4.180000, 73.136, 34.2364
4.250000, 73.441, 32.8636
4.310000, 73.697, 31.7111
4.370000, 73.950, 30.5802
4.440000, 74.241, 29.2883
4.500000, 74.486, 28.2041
4.550000, 74.688, 27.3153
4.620000, 74.966, 26.0901
4.680000, 75.201, 25.0550
4.750000, 75.472, 23.8623
4.820000, 75.740, 22.6865
4.870000, 75.928, 21.8582
4.940000, 76.189, 20.7125
5.000000, 76.409, 19.7410
5.080000, 76.699, 18.4562
5.150000, 76.947, 17.3389
5.220000, 77.192, 16.2292
5.300000, 77.468, 14.9720
5.380000, 77.737, 13.7264
5.450000, 77.969, 12.6446
5.520000, 78.195, 11.5679
5.600000, 78.448, 10.3417
5.700000, 78.756, 8.8209
5.800000, 79.054, 7.3223
5.900000, 79.341, 5.8469
6.000000, 79.619, 4.3864
6.080000, 79.833, 3.2338
6.150000, 80.016, 2.2433
6.220000, 80.194, 1.2728
6.300000, 80.392, 0.1841
6.400000, 80.631, -1.1513
6.500000, 80.862, -2.4496
6.600000, 81.086, -3.7009
6.700000, 81.303, -4.9083
6.800000, 81.513, -6.0774
6.900000, 81.719, -7.2063
7.000000, 81.922, -8.2923
7.100000, 82.120, -9.3383
7.200000, 82.316, -10.3508
7.300000, 82.509, -11.3351
7.400000, 82.701, -12.2929
7.500000, 82.891, -13.2254
7.620000, 83.117, -14.3215
7.750000, 83.359, -15.4921
7.880000, 83.598, -16.6463
8.000000, 83.815, -17.7008
8.120000, 84.026, -18.7510
8.250000, 84.250, -19.8839
8.380000, 84.467, -21.0037
8.500000, 84.659, -22.0242
8.620000, 84.845, -23.0320
8.750000, 85.039, -24.0961
8.850000, 85.182, -24.8895
9.000000, 85.389, -26.0404
9.120000, 85.549, -26.9179
9.250000, 85.717, -27.8176
9.380000, 85.881, -28.6678
9.500000, 86.031, -29.4089
9.620000, 86.182, -30.1068
9.750000, 86.343, -30.8197
9.880000, 86.500, -31.4985
10.000000, 86.636, -32.0986
10.150000, 86.800, -32.8217
10.300000, 86.960, -33.5338
10.440000, 87.109, -34.1942
10.600000, 87.281, -34.9548
10.750000, 87.446, -35.6826
10.900000, 87.613, -36.4242
11.060000, 87.790, -37.2316
11.200000, 87.942, -37.9508
11.380000, 88.134, -38.8854
11.500000, 88.259, -39.5124
11.720000, 88.484, -40.6635
11.800000, 88.566, -41.0809
12.060000, 88.830, -42.4328
12.200000, 88.971, -43.1578
12.410000, 89.181, -44.2435
12.500000, 89.270, -44.7092
12.650000, 89.414, -45.4861
12.800000, 89.555, -46.2626
13.150000, 89.867, -48.0627
13.200000, 89.909, -48.3157
13.400000, 90.075, -49.3110
13.600000, 90.235, -50.2651
13.800000, 90.388, -51.1650
14.000000, 90.537, -51.9996
14.300000, 90.759, -53.1246
14.500000, 90.910, -53.7985
14.750000, 91.106, -54.5837
15.000000, 91.316, -55.3412
15.250000, 91.539, -56.1131
15.500000, 91.770, -56.9292
15.750000, 92.000, -57.8032
16.000000, 92.226, -58.7328
16.250000, 92.442, -59.6999
16.500000, 92.649, -60.6819
16.750000, 92.846, -61.6555
17.000000, 93.037, -62.6044
17.250000, 93.224, -63.5222
17.500000, 93.408, -64.4104
17.750000, 93.591, -65.2784
18.000000, 93.774, -66.1370
18.250000, 93.955, -66.9956
18.500000, 94.135, -67.8597
18.750000, 94.311, -68.7297
19.000000, 94.485, -69.6021
19.250000, 94.656, -70.4708
19.500000, 94.823, -71.3304
19.750000, 94.987, -72.1776
20.000000, 95.148, -73.0112
20.299999, 95.341, -73.9970
20.600000, 95.532, -74.9741
20.900000, 95.722, -75.9509
21.200001, 95.911, -76.9349
21.400000, 96.034, -77.5969
21.799999, 96.277, -78.9349
22.000000, 96.395, -79.6089
22.400000, 96.625, -80.9578
22.700001, 96.792, -81.9631
23.000000, 96.956, -82.9583
23.299999, 97.117, -83.9431
23.600000, 97.277, -84.9218
24.000000, 97.489, -86.2280
24.299999, 97.646, -87.2159
24.700001, 97.850, -88.5455
25.000000, 97.998, -89.5452
25.400000, 98.189, -90.8666
25.799999, 98.376, -92.1653
26.200001, 98.562, -93.4515
26.500000, 98.701, -94.4246
26.900000, 98.887, -95.7548
27.200001, 99.022, -96.7815
27.600000, 99.192, -98.1752
28.000000, 99.350, -99.5677
28.500000, 99.535, -101.2729
29.000000, 99.712, -102.9470
29.500000, 99.879, -104.6224
30.000000, 100.026, -106.2847
30.400000, 100.126, -107.5538
30.700001, 100.195, -108.4404
31.100000, 100.283, -109.5198
31.500000, 100.375, -110.4904
32.000000, 100.505, -111.5961
32.500000, 100.651, -112.6318
33.000000, 100.818, -113.6386
33.500000, 101.010, -114.6833
34.000000, 101.227, -115.8701
34.500000, 101.452, -117.2798
35.000000, 101.664, -118.9001
35.500000, 101.850, -120.6320
36.000000, 102.012, -122.3651
36.500000, 102.162, -124.0472
37.000000, 102.310, -125.6915
37.500000, 102.460, -127.3355
38.200001, 102.672, -129.6907
38.700001, 102.824, -131.4454
39.500000, 103.058, -134.4601
40.000000, 103.185, -136.4791
40.599998, 103.304, -138.9625
41.200001, 103.390, -141.4082
41.799999, 103.454, -143.7595
42.500000, 103.513, -146.3845
43.099998, 103.559, -148.5582
43.700001, 103.602, -150.7041
44.400002, 103.646, -153.2333
45.000000, 103.666, -155.4153
45.500000, 103.669, -157.2016
46.200001, 103.660, -159.6233
46.799999, 103.646, -161.6505
47.500000, 103.613, -163.9565
48.200001, 103.567, -166.1368
48.700001, 103.536, -167.6208
49.400002, 103.495, -169.6655
50.000000, 103.458, -171.4241
50.799999, 103.399, -173.7740
51.500000, 103.336, -175.8387
52.200001, 103.255, -177.8742
53.000000, 103.152, 179.9210
53.799999, 103.058, 177.7596
54.500000, 102.973, 175.7866
55.200001, 102.869, 173.8020
56.000000, 102.740, 171.6150
57.000000, 102.575, 168.8711
58.000000, 102.376, 166.1558
59.000000, 102.163, 163.5398
60.000000, 101.906, 160.7806
60.799999, 101.626, 158.7250
61.500000, 101.351, 157.2567
62.200001, 101.072, 156.0347
63.000000, 100.749, 154.8422
64.000000, 100.337, 153.7278
65.000000, 99.948, 153.0074
66.000000, 99.590, 152.5344
67.000000, 99.259, 152.3145
68.000000, 98.968, 152.3395
69.000000, 98.724, 152.4952
70.000000, 98.519, 152.6576
71.000000, 98.334, 152.7674
72.000000, 98.155, 152.8920
73.000000, 97.994, 153.0408
74.000000, 97.848, 153.1118
75.000000, 97.702, 153.0833
76.199997, 97.510, 153.0984
77.500000, 97.315, 153.4099
78.800003, 97.166, 153.9049
80.000000, 97.072, 154.4531
81.199997, 97.029, 154.9700
82.500000, 97.019, 155.3953
83.800003, 97.056, 155.7308
85.000000, 97.129, 155.7231
86.199997, 97.205, 155.4086
87.500000, 97.283, 154.7702
88.500000, 97.327, 154.0926
90.000000, 97.394, 153.0533
91.199997, 97.493, 151.8362
92.500000, 97.567, 149.8467
93.800003, 97.581, 147.6229
95.000000, 97.558, 145.3792
96.199997, 97.482, 142.9172
97.500000, 97.321, 140.1131
98.800003, 97.078, 137.2533
100.000000, 96.773, 134.5651
101.500000, 96.236, 131.3596
103.000000, 95.513, 129.0113
104.400002, 94.719, 128.0478
106.000000, 93.736, 128.6205
107.500000, 92.856, 131.2213
109.000000, 92.219, 135.3208
110.599998, 91.877, 140.0347
112.000000, 91.808, 143.9312
113.800003, 91.916, 148.0628
115.000000, 92.006, 150.1008
117.199997, 92.072, 152.9401
118.000000, 92.074, 153.9127
120.599998, 92.379, 156.5596
122.000000, 92.612, 155.9989
124.099998, 92.821, 154.5789
125.000000, 92.878, 154.0657
126.500000, 92.946, 153.4320
128.000000, 93.011, 152.9324
131.500000, 93.085, 151.3648
132.000000, 93.091, 151.1129
134.000000, 93.092, 149.8398
136.000000, 93.010, 148.1144
138.000000, 92.824, 146.5040
140.000000, 92.636, 145.3578
143.000000, 92.372, 144.0492
145.000000, 92.201, 143.4755
147.500000, 91.961, 142.3083
150.000000, 91.608, 140.9493
152.500000, 91.161, 139.7432
155.000000, 90.740, 138.8563
157.500000, 90.374, 138.3790
160.000000, 90.020, 139.1977
162.500000, 89.671, 140.3880
165.000000, 89.072, 139.6417
167.500000, 88.360, 139.0482
170.000000, 87.720, 139.2346
172.500000, 87.153, 141.6773
175.000000, 86.656, 144.7126
177.500000, 86.197, 146.9437
180.000000, 85.766, 148.8223
182.500000, 85.473, 151.8844
185.000000, 85.302, 154.7903
187.500000, 85.113, 157.5210
190.000000, 84.941, 160.2105
192.500000, 84.814, 162.8098
195.000000, 84.713, 165.3288
197.500000, 84.615, 167.6341
200.000000, 84.521, 169.8043
203.000000, 84.445, 172.2451
206.000000, 84.364, 174.5162
209.000000, 84.283, 176.6258
212.000000, 84.210, 178.4464
214.000000, 84.171, 179.6195
218.000000, 84.118, -177.9184
220.000000, 84.097, -176.7213
224.000000, 84.029, -174.6057
227.000000, 83.958, -173.3096
230.000000, 83.880, -172.1879
233.000000, 83.811, -171.0823
236.000000, 83.791, -169.4143
240.000000, 83.757, -167.0690
243.000000, 83.551, -165.9816
247.000000, 83.246, -164.1538
250.000000, 83.100, -162.2498
254.000000, 82.990, -159.9560
258.000000, 82.893, -158.3124
262.000000, 82.696, -156.1885
265.000000, 82.510, -154.6511
269.000000, 82.275, -152.8108
272.000000, 82.139, -151.0980
276.000000, 82.013, -148.4506
280.000000, 81.860, -145.9466
285.000000, 81.622, -142.8215
290.000000, 81.398, -139.4280
295.000000, 81.182, -135.7899
300.000000, 80.969, -131.7893
304.000000, 80.839, -128.3445
307.000000, 80.765, -125.5644
311.000000, 80.708, -121.5544
315.000000, 80.752, -117.3849
320.000000, 81.001, -112.6329
325.000000, 81.356, -109.1968
330.000000, 81.619, -107.1335
335.000000, 81.718, -105.4934
340.000000, 81.713, -103.6194
345.000000, 81.704, -101.1826
350.000000, 81.732, -98.3860
355.000000, 81.775, -95.7103
360.000000, 81.839, -93.1570
365.000000, 81.925, -90.5791
370.000000, 82.022, -88.2659
375.000000, 82.091, -86.3276
382.000000, 82.107, -83.6448
387.000000, 82.093, -81.5670
395.000000, 82.080, -77.9458
400.000000, 82.085, -75.5637
406.000000, 82.107, -72.7476
412.000000, 82.126, -70.0327
418.000000, 82.132, -67.1812
425.000000, 82.137, -63.9775
431.000000, 82.147, -61.3418
437.000000, 82.153, -58.6886
444.000000, 82.156, -55.4995
450.000000, 82.165, -52.6530
455.000000, 82.190, -50.3074
462.000000, 82.249, -47.0893
468.000000, 82.308, -44.3643
475.000000, 82.366, -41.5650
482.000000, 82.385, -38.9542
487.000000, 82.390, -36.9884
494.000000, 82.393, -34.2029
500.000000, 82.391, -31.8077
508.000000, 82.377, -28.4932
515.000000, 82.362, -25.5846
522.000000, 82.346, -22.7144
530.000000, 82.328, -19.3317
538.000000, 82.306, -15.8666
545.000000, 82.289, -12.8882
552.000000, 82.272, -9.9104
560.000000, 82.249, -6.4560
570.000000, 82.211, -2.0625
580.000000, 82.182, 2.4622
590.000000, 82.188, 6.9389
600.000000, 82.203, 11.1953
608.000000, 82.187, 14.5908
615.000000, 82.157, 17.5754
622.000000, 82.116, 20.6008
630.000000, 82.067, 24.1499
640.000000, 82.010, 28.6501
650.000000, 81.956, 33.2125
660.000000, 81.909, 37.8624
670.000000, 81.880, 42.4597
680.000000, 81.849, 47.0831
690.000000, 81.810, 51.7081
700.000000, 81.767, 56.4541
710.000000, 81.731, 61.2634
720.000000, 81.704, 66.0551
730.000000, 81.677, 70.8455
740.000000, 81.651, 75.7329
750.000000, 81.635, 80.7206
762.000000, 81.632, 86.6943
775.000000, 81.639, 93.1651
788.000000, 81.664, 99.6519
800.000000, 81.696, 105.6297
812.000000, 81.737, 111.6175
825.000000, 81.801, 118.0773
838.000000, 81.877, 124.4934
850.000000, 81.954, 130.3084
862.000000, 82.028, 136.0241
875.000000, 82.103, 142.1926
885.000000, 82.159, 146.9650
900.000000, 82.246, 154.0997
912.000000, 82.323, 159.7656
925.000000, 82.410, 165.8762
938.000000, 82.498, 171.9456
950.000000, 82.581, 177.5069
962.000000, 82.663, -176.9781
975.000000, 82.748, -171.0505
988.000000, 82.829, -165.1594
1000.000000, 82.897, -159.7342
1015.000000, 82.977, -152.9583
1030.000000, 83.054, -146.1639
1044.000000, 83.129, -139.8281
1060.000000, 83.211, -132.6336
1075.000000, 83.284, -125.8951
1090.000000, 83.361, -119.1630
1106.000000, 83.452, -111.9839
1120.000000, 83.534, -105.7046
1138.000000, 83.634, -97.6840
1150.000000, 83.698, -92.3871
1172.000000, 83.804, -82.8195
1180.000000, 83.829, -79.3968
1206.000000, 83.823, -68.1789
1220.000000, 83.784, -61.7082
1241.000000, 83.780, -51.4093
1250.000000, 83.810, -46.9500
1265.000000, 83.889, -39.6071
1280.000000, 83.981, -32.3830
1315.000000, 84.192, -15.8278
1320.000000, 84.221, -13.4833
1340.000000, 84.325, -4.1150
1360.000000, 84.409, 5.2676
1380.000000, 84.491, 14.6521
1400.000000, 84.586, 24.0223
1430.000000, 84.735, 38.0566
1450.000000, 84.833, 47.3823
1475.000000, 84.939, 59.0492
1500.000000, 85.031, 70.8462
1525.000000, 85.115, 82.7681
1550.000000, 85.200, 94.7251
1575.000000, 85.280, 106.7009
1600.000000, 85.346, 118.7214
1625.000000, 85.389, 130.8426
1650.000000, 85.412, 143.1639
1675.000000, 85.421, 155.7605
1700.000000, 85.412, 168.6827
1725.000000, 85.377, -177.8464
1750.000000, 85.333, -163.3886
1775.000000, 85.373, -147.2522
1800.000000, 85.772, -128.8536
1825.000000, 86.948, -109.8663
1850.000000, 88.759, -95.8670
1875.000000, 90.258, -89.2913
1900.000000, 90.914, -85.4189
1925.000000, 90.970, -79.9518
1950.000000, 90.811, -71.9201
1975.000000, 90.680, -61.9041
2000.000000, 90.675, -50.9194
2030.000000, 90.799, -37.5707
2060.000000, 90.958, -24.3846
2090.000000, 91.109, -11.1485
2120.000000, 91.263, 2.2123
2140.000000, 91.370, 11.1774
2180.000000, 91.601, 29.2705
2200.000000, 91.729, 38.3622
2240.000000, 92.007, 56.5989
2270.000000, 92.236, 70.2583
2300.000000, 92.473, 83.8159
2330.000000, 92.716, 97.2552
2360.000000, 92.961, 110.6069
2400.000000, 93.290, 128.2775
2430.000000, 93.532, 141.4203
2470.000000, 93.845, 158.8056
2500.000000, 94.071, 171.7502
2540.000000, 94.362, -171.1002
2580.000000, 94.634, -154.0928
2620.000000, 94.873, -137.1573
2650.000000, 95.030, -124.5043
2690.000000, 95.213, -107.6727
2720.000000, 95.333, -95.0363
2760.000000, 95.466, -78.1432
2800.000000, 95.574, -61.1025
2850.000000, 95.708, -39.5049
2900.000000, 95.866, -17.7371
2950.000000, 96.058, 4.0105
3000.000000, 96.260, 25.3126
3040.000000, 96.397, 41.9286
3070.000000, 96.470, 54.2664
3110.000000, 96.537, 70.7218
3150.000000, 96.592, 87.0815
3200.000000, 96.616, 107.0185
3250.000000, 96.531, 126.4738
3300.000000, 96.304, 145.9031
3350.000000, 95.951, 165.6921
3400.000000, 95.521, -174.2758
3450.000000, 94.980, -154.3394
3500.000000, 94.227, -134.2561
3550.000000, 93.199, -113.0619
3600.000000, 91.951, -89.3951
3650.000000, 90.652, -62.2654
3700.000000, 89.596, -30.0787
3750.000000, 89.542, 6.1700
3820.000000, 90.929, 46.8351
3870.000000, 91.647, 68.1412
3950.000000, 91.619, 99.7970
4000.000000, 91.095, 121.4304
4060.000000, 90.366, 150.2406
4120.000000, 89.786, -179.9183
4180.000000, 89.311, -152.8668
4250.000000, 88.831, -125.9254
4310.000000, 88.607, -104.1893
4370.000000, 88.545, -82.8927
4440.000000, 88.605, -58.9655
4500.000000, 88.719, -39.4727
4550.000000, 88.816, -23.9707
4620.000000, 88.884, -3.2499
4680.000000, 88.844, 13.8619
4750.000000, 88.668, 33.4872
4820.000000, 88.349, 53.1865
4870.000000, 88.042, 67.5219
4940.000000, 87.535, 88.2561
5000.000000, 87.081, 106.8041
5080.000000, 86.548, 132.4720
5150.000000, 86.252, 155.1892
5220.000000, 86.095, 177.3879
5300.000000, 86.031, -157.8623
5380.000000, 86.072, -133.8003
5450.000000, 86.119, -113.8032
5520.000000, 86.064, -95.0736
5600.000000, 85.767, -74.6052
5700.000000, 85.007, -48.6982
5800.000000, 84.035, -21.0591
5900.000000, 83.129, 8.5123
6000.000000, 82.301, 38.7877
6080.000000, 81.646, 63.0077
6150.000000, 81.072, 84.4238
6220.000000, 80.514, 106.2815
6300.000000, 79.929, 131.8179
6400.000000, 79.327, 164.1616
6500.000000, 78.851, -163.5100
6600.000000, 78.450, -131.1375
6700.000000, 78.138, -98.3811
6800.000000, 77.999, -65.1902
6900.000000, 78.094, -32.2129
7000.000000, 78.389, -0.1719
7100.000000, 78.807, 30.8022
7200.000000, 79.281, 60.7324
7300.000000, 79.770, 89.7473
7400.000000, 80.268, 118.0522
7500.000000, 80.792, 145.8145
7620.000000, 81.498, 178.2935
7750.000000, 82.336, -148.1155
7880.000000, 83.036, -116.6006
8000.000000, 83.443, -88.9629
8120.000000, 83.585, -61.9939
8250.000000, 83.497, -32.7117
8380.000000, 83.285, -2.5298
8500.000000, 83.096, 25.9839
8620.000000, 82.986, 54.5879
8750.000000, 82.900, 85.2815
8850.000000, 82.783, 108.6589
9000.000000, 82.512, 143.1482
9120.000000, 82.282, 170.2490
9250.000000, 81.986, -160.8948
9380.000000, 81.481, -132.3982
9500.000000, 80.729, -105.7549
9620.000000, 79.698, -77.8735
9750.000000, 78.329, -44.8440
9880.000000, 77.042, -7.2661
10000.000000, 76.631, 30.7178
10150.000000, 77.580, 76.7847
10300.000000, 79.167, 117.0168
10440.000000, 80.534, 150.1938
10600.000000, 81.940, -174.8372
10750.000000, 83.294, -143.9951
10900.000000, 84.679, -115.5693
11060.000000, 85.866, -88.8413
11200.000000, 86.336, -67.8777
11380.000000, 86.070, -40.9192
11500.000000, 85.573, -21.0505
11720.000000, 84.662, 19.3840
11800.000000, 84.384, 34.5090
12060.000000, 83.275, 83.0122
12200.000000, 82.258, 109.0620
12410.000000, 79.985, 150.9258
12500.000000, 78.790, 170.9265
12650.000000, 76.817, -152.0386
12800.000000, 75.525, -111.4314
13150.000000, 76.427, -20.5332
13200.000000, 76.800, -8.9509
13400.000000, 78.333, 33.3237
13600.000000, 79.519, 70.4199
13800.000000, 80.295, 104.3005
14000.000000, 80.688, 135.8394
14300.000000, 80.383, -179.4463
14500.000000, 79.786, -149.8789
14750.000000, 79.259, -113.7007
15000.000000, 79.256, -81.4675
15250.000000, 79.423, -55.4717
15500.000000, 79.257, -35.6562
15750.000000, 78.386, -20.0498
16000.000000, 75.961, -2.2710
16250.000000, 72.349, 26.0571
16500.000000, 70.389, 62.0752
16750.000000, 70.139, 99.0439
17000.000000, 70.163, 136.1099
17250.000000, 70.475, 171.6943
17500.000000, 69.974, -154.8013
17750.000000, 67.208, -116.2856
18000.000000, 62.565, -60.1743
18250.000000, 60.785, 6.6001
18500.000000, 62.770, 63.1890
18750.000000, 64.349, 111.2041
19000.000000, 65.079, 156.0586
19250.000000, 65.294, -159.0967
19500.000000, 65.397, -113.5537
19750.000000, 65.619, -67.2812
20000.000000, 65.621, -20.5605
20300.000000, 64.892, 31.4990
20600.000000, 63.268, 74.8750
20900.000000, 60.572, 127.9688
21200.000000, 56.370, -158.7754
21400.000000, 52.511, -101.6724
21800.000000, 42.544, 46.6348
22000.000000, 37.156, -102.6367
22400.000000, 28.064, 49.6191
22700.000000, 23.992, 173.5400
23000.000000, 21.780, -64.9087
23300.000000, 19.583, 75.3711
23600.000000, 18.240, -130.2041
24000.000000, 17.654, 16.6035
