* Measurement data measured by REW V5.31.3
* Source: Headset (DS by VECLAN.COM), MICROPHONE (Master Volume), L, volume: 0.720. Timing signal peak level -18.5 dBFS, measurement signal peak level -12.6 dBFS
* Format: 2M Log Swept Sine, 1 sweep at -14.4 dBFS using an acoustic timing reference
* Dated: Nov 5, 2024 11:56:49 PM
* REW Settings:
*  C-weighting compensation: Off
*  Target level: 85.0 dB
* Note: ; Delay -2.8141 ms (-965 mm, -(3 ft 2 in)) using estimated IR delay relative to Acoustic reference played from HEADPHONE R with no timing offset Clock adjustment: -1,193.9 ppm
* Measurement: Classic Ambient R5
* Smoothing: 1/24 octave
* Frequency Step: 1/48 octave
* Start Frequency: 1.000 Hz
*
* Freq(Hz), SPL(dB), Phase(degrees)
1.000000, 37.968, -177.9662
1.015000, 37.994, -178.4606
1.030000, 38.025, -179.0245
1.044000, 38.060, -179.6171
1.060000, 38.106, 179.6231
1.075000, 38.155, 178.8276
1.090000, 38.211, 177.9516
1.106000, 38.278, 176.9457
1.120000, 38.341, 176.0385
1.138000, 38.427, 174.8580
1.150000, 38.488, 174.0631
1.172000, 38.606, 172.5853
1.180000, 38.652, 172.0400
1.206000, 38.808, 170.2325
1.220000, 38.898, 169.2335
1.241000, 39.040, 167.6956
1.250000, 39.104, 167.0205
1.265000, 39.213, 165.8725
1.280000, 39.328, 164.6937
1.315000, 39.614, 161.8132
1.320000, 39.657, 161.3859
1.340000, 39.835, 159.6351
1.360000, 40.022, 157.8159
1.380000, 40.219, 155.9265
1.400000, 40.424, 153.9663
1.430000, 40.750, 150.8949
1.450000, 40.980, 148.7663
1.475000, 41.284, 146.0582
1.500000, 41.611, 143.4022
1.525000, 41.961, 140.8483
1.550000, 42.333, 138.3975
1.575000, 42.722, 136.0417
1.600000, 43.127, 133.7705
1.625000, 43.545, 131.5728
1.650000, 43.972, 129.4373
1.675000, 44.406, 127.3531
1.700000, 44.844, 125.3102
1.725000, 45.283, 123.2995
1.750000, 45.720, 121.3132
1.775000, 46.152, 119.3448
1.800000, 46.577, 117.3895
1.825000, 46.993, 115.4514
1.850000, 47.405, 113.5621
1.875000, 47.818, 111.7623
1.900000, 48.233, 110.0584
1.925000, 48.651, 108.4407
1.950000, 49.071, 106.8977
1.975000, 49.490, 105.4180
2.000000, 49.909, 103.9913
2.030000, 50.409, 102.3358
2.060000, 50.904, 100.7281
2.090000, 51.393, 99.1553
2.120000, 51.874, 97.6062
2.140000, 52.189, 96.5819
2.180000, 52.804, 94.5465
2.200000, 53.104, 93.5387
2.240000, 53.691, 91.5828
2.270000, 54.122, 90.1845
2.300000, 54.546, 88.8407
2.330000, 54.963, 87.5439
2.360000, 55.372, 86.2861
2.400000, 55.908, 84.6577
2.430000, 56.301, 83.4641
2.470000, 56.816, 81.8984
2.500000, 57.195, 80.7366
2.540000, 57.690, 79.1966
2.580000, 58.174, 77.6704
2.620000, 58.645, 76.1806
2.650000, 58.990, 75.0935
2.690000, 59.440, 73.6818
2.720000, 59.769, 72.6481
2.760000, 60.199, 71.2983
2.800000, 60.619, 69.9753
2.850000, 61.132, 68.3500
2.900000, 61.632, 66.7462
2.950000, 62.120, 65.1610
3.000000, 62.593, 63.6066
3.040000, 62.961, 62.3901
3.070000, 63.230, 61.4932
3.110000, 63.583, 60.3166
3.150000, 63.927, 59.1602
3.200000, 64.348, 57.7395
3.250000, 64.759, 56.3419
3.300000, 65.161, 54.9635
3.350000, 65.552, 53.6051
3.400000, 65.933, 52.2700
3.450000, 66.302, 50.9592
3.500000, 66.662, 49.6726
3.550000, 67.013, 48.4089
3.600000, 67.357, 47.1664
3.650000, 67.693, 45.9431
3.700000, 68.022, 44.7370
3.750000, 68.343, 43.5481
3.820000, 68.779, 41.9138
3.870000, 69.081, 40.7683
3.950000, 69.551, 38.9723
4.000000, 69.837, 37.8714
4.060000, 70.174, 36.5698
4.120000, 70.501, 35.2876
4.180000, 70.820, 34.0252
4.250000, 71.181, 32.5779
4.310000, 71.483, 31.3589
4.370000, 71.778, 30.1588
4.440000, 72.114, 28.7794
4.500000, 72.395, 27.6130
4.550000, 72.623, 26.6525
4.620000, 72.935, 25.3263
4.680000, 73.196, 24.2068
4.750000, 73.494, 22.9199
4.820000, 73.783, 21.6501
4.870000, 73.985, 20.7523
4.940000, 74.261, 19.5089
5.000000, 74.492, 18.4576
5.080000, 74.792, 17.0779
5.150000, 75.047, 15.8895
5.220000, 75.295, 14.7141
5.300000, 75.570, 13.3866
5.380000, 75.836, 12.0807
5.450000, 76.063, 10.9584
5.520000, 76.283, 9.8539
5.600000, 76.528, 8.6072
5.700000, 76.822, 7.0736
5.800000, 77.105, 5.5768
5.900000, 77.378, 4.1194
6.000000, 77.640, 2.6913
6.080000, 77.842, 1.5713
6.150000, 78.013, 0.6116
6.220000, 78.181, -0.3273
6.300000, 78.367, -1.3784
6.400000, 78.591, -2.6644
6.500000, 78.807, -3.9149
6.600000, 79.017, -5.1249
6.700000, 79.219, -6.2983
6.800000, 79.414, -7.4391
6.900000, 79.604, -8.5438
7.000000, 79.788, -9.6109
7.100000, 79.967, -10.6447
7.200000, 80.141, -11.6466
7.300000, 80.312, -12.6149
7.400000, 80.478, -13.5504
7.500000, 80.641, -14.4559
7.620000, 80.832, -15.5041
7.750000, 81.034, -16.5924
7.880000, 81.233, -17.6351
8.000000, 81.414, -18.5604
8.120000, 81.593, -19.4515
8.250000, 81.784, -20.3805
8.380000, 81.974, -21.2775
8.500000, 82.149, -22.0802
8.620000, 82.324, -22.8601
8.750000, 82.513, -23.6873
8.850000, 82.658, -24.3140
9.000000, 82.877, -25.2403
9.120000, 83.052, -25.9775
9.250000, 83.242, -26.7778
9.380000, 83.432, -27.5806
9.500000, 83.606, -28.3297
9.620000, 83.780, -29.0898
9.750000, 83.966, -29.9247
9.880000, 84.141, -30.7731
10.000000, 84.290, -31.5695
10.150000, 84.461, -32.5790
10.300000, 84.618, -33.5988
10.440000, 84.754, -34.5582
10.600000, 84.902, -35.6528
10.750000, 85.035, -36.6698
10.900000, 85.162, -37.6727
11.060000, 85.291, -38.7137
11.200000, 85.397, -39.5983
11.380000, 85.526, -40.6897
11.500000, 85.609, -41.3857
11.720000, 85.757, -42.5952
11.800000, 85.810, -43.0127
12.060000, 85.986, -44.2928
12.200000, 86.083, -44.9363
12.410000, 86.229, -45.8485
12.500000, 86.293, -46.2223
12.650000, 86.399, -46.8246
12.800000, 86.506, -47.4045
13.150000, 86.761, -48.6891
13.200000, 86.798, -48.8666
13.400000, 86.950, -49.5654
13.600000, 87.105, -50.2537
13.800000, 87.263, -50.9387
14.000000, 87.421, -51.6288
14.300000, 87.656, -52.6838
14.500000, 87.808, -53.4035
14.750000, 87.991, -54.3138
15.000000, 88.165, -55.2198
15.250000, 88.330, -56.0947
15.500000, 88.487, -56.9111
15.750000, 88.636, -57.6501
16.000000, 88.784, -58.3053
16.250000, 88.936, -58.8928
16.500000, 89.095, -59.4430
16.750000, 89.263, -59.9968
17.000000, 89.439, -60.5920
17.250000, 89.615, -61.2504
17.500000, 89.786, -61.9745
17.750000, 89.944, -62.7446
18.000000, 90.087, -63.5277
18.250000, 90.215, -64.2865
18.500000, 90.332, -64.9885
18.750000, 90.443, -65.6165
19.000000, 90.553, -66.1689
19.250000, 90.667, -66.6603
19.500000, 90.788, -67.1147
19.750000, 90.915, -67.5565
20.000000, 91.046, -68.0060
20.299999, 91.206, -68.5708
20.600000, 91.366, -69.1669
20.900000, 91.524, -69.7883
21.200001, 91.677, -70.4268
21.400000, 91.776, -70.8579
21.799999, 91.968, -71.7233
22.000000, 92.060, -72.1519
22.400000, 92.239, -72.9845
22.700001, 92.369, -73.5760
23.000000, 92.500, -74.1373
23.299999, 92.632, -74.6787
23.600000, 92.768, -75.2197
24.000000, 92.952, -75.9767
24.299999, 93.088, -76.5843
24.700001, 93.258, -77.4317
25.000000, 93.374, -78.0637
25.400000, 93.514, -78.8476
25.799999, 93.647, -79.5268
26.200001, 93.782, -80.1063
26.500000, 93.889, -80.5038
26.900000, 94.042, -81.0351
27.200001, 94.161, -81.4631
27.600000, 94.317, -82.0925
28.000000, 94.464, -82.7764
28.500000, 94.627, -83.6404
29.000000, 94.770, -84.4180
29.500000, 94.908, -85.0642
30.000000, 95.053, -85.6382
30.400000, 95.171, -86.1111
30.700001, 95.254, -86.4838
31.100000, 95.352, -86.9634
31.500000, 95.432, -87.3350
32.000000, 95.529, -87.5153
32.500000, 95.659, -87.3769
33.000000, 95.855, -87.1265
33.500000, 96.114, -87.0591
34.000000, 96.407, -87.3688
34.500000, 96.700, -88.0887
35.000000, 96.965, -89.1357
35.500000, 97.186, -90.3691
36.000000, 97.362, -91.6346
36.500000, 97.505, -92.8141
37.000000, 97.632, -93.8693
37.500000, 97.755, -94.8331
38.200001, 97.921, -96.1036
38.700001, 98.031, -96.9435
39.500000, 98.206, -98.0818
40.000000, 98.329, -98.6725
40.599998, 98.500, -99.3528
41.200001, 98.695, -100.1196
41.799999, 98.898, -101.0503
42.500000, 99.130, -102.3649
43.099998, 99.311, -103.6724
43.700001, 99.462, -105.0986
44.400002, 99.594, -106.7710
45.000000, 99.683, -108.0924
45.500000, 99.756, -109.1204
46.200001, 99.865, -110.5752
46.799999, 99.950, -111.8990
47.500000, 100.023, -113.4377
48.200001, 100.079, -114.8392
48.700001, 100.117, -115.7565
49.400002, 100.167, -116.9709
50.000000, 100.201, -117.9292
50.799999, 100.239, -119.0076
51.500000, 100.286, -119.8328
52.200001, 100.339, -120.7023
53.000000, 100.387, -121.7998
53.799999, 100.414, -122.9868
54.500000, 100.413, -124.0264
55.200001, 100.411, -124.9537
56.000000, 100.449, -126.1498
57.000000, 100.446, -128.2018
58.000000, 100.342, -129.3874
59.000000, 100.453, -129.8630
60.000000, 100.637, -131.5366
60.799999, 100.681, -133.0483
61.500000, 100.697, -134.0931
62.200001, 100.712, -135.0737
63.000000, 100.701, -136.2092
64.000000, 100.632, -137.4789
65.000000, 100.529, -138.3202
66.000000, 100.466, -138.8697
67.000000, 100.431, -139.5033
68.000000, 100.406, -140.0300
69.000000, 100.428, -140.4727
70.000000, 100.492, -141.0255
71.000000, 100.583, -141.8118
72.000000, 100.675, -142.9460
73.000000, 100.740, -144.4142
74.000000, 100.758, -146.1373
75.000000, 100.718, -147.9767
76.199997, 100.602, -150.1129
77.500000, 100.414, -152.1301
78.800003, 100.190, -153.7115
80.000000, 99.978, -154.7342
81.199997, 99.789, -155.4462
82.500000, 99.617, -156.0419
83.800003, 99.484, -156.5343
85.000000, 99.394, -157.0721
86.199997, 99.312, -157.7002
87.500000, 99.226, -158.4547
88.500000, 99.152, -159.1027
90.000000, 99.043, -160.0587
91.199997, 98.974, -161.1208
92.500000, 98.858, -162.6211
93.800003, 98.700, -164.1796
95.000000, 98.519, -165.6106
96.199997, 98.308, -166.9539
97.500000, 98.051, -168.3748
98.800003, 97.751, -169.8533
100.000000, 97.412, -171.2899
101.500000, 96.882, -172.9517
103.000000, 96.242, -174.2227
104.400002, 95.548, -174.7721
106.000000, 94.665, -174.1990
107.500000, 93.799, -172.1341
109.000000, 92.984, -168.4648
110.599998, 92.278, -163.1727
112.000000, 91.869, -157.9852
113.800003, 91.652, -151.5328
115.000000, 91.675, -147.6201
117.199997, 91.971, -141.5435
118.000000, 92.123, -139.7416
120.599998, 92.405, -135.6426
122.000000, 92.435, -132.8895
124.099998, 92.548, -129.1816
125.000000, 92.611, -127.7655
126.500000, 92.756, -125.6111
128.000000, 92.945, -123.6354
131.500000, 93.462, -119.9660
132.000000, 93.529, -119.5495
134.000000, 93.786, -118.0240
136.000000, 94.049, -116.8407
138.000000, 94.280, -116.0756
140.000000, 94.446, -115.2335
143.000000, 94.681, -114.0231
145.000000, 94.821, -113.5719
147.500000, 94.976, -113.1453
150.000000, 95.127, -112.6261
152.500000, 95.251, -112.2416
155.000000, 95.341, -111.9025
157.500000, 95.410, -111.5623
160.000000, 95.446, -110.7506
162.500000, 95.471, -109.8966
165.000000, 95.398, -109.9277
167.500000, 95.281, -109.9514
170.000000, 95.231, -109.6323
172.500000, 95.190, -108.9858
175.000000, 95.104, -108.3082
177.500000, 94.968, -107.9298
180.000000, 94.839, -107.4020
182.500000, 94.752, -106.8324
185.000000, 94.637, -106.1913
187.500000, 94.510, -105.3095
190.000000, 94.382, -104.4410
192.500000, 94.242, -103.5220
195.000000, 94.088, -102.5031
197.500000, 93.924, -101.3052
200.000000, 93.766, -99.9872
203.000000, 93.589, -98.3627
206.000000, 93.425, -96.6896
209.000000, 93.261, -94.9347
212.000000, 93.088, -93.1014
214.000000, 92.967, -91.9038
218.000000, 92.712, -89.5092
220.000000, 92.584, -88.2632
224.000000, 92.340, -85.6445
227.000000, 92.171, -83.4859
230.000000, 92.013, -81.2781
233.000000, 91.849, -79.1649
236.000000, 91.689, -76.9854
240.000000, 91.489, -73.8962
243.000000, 91.331, -71.5704
247.000000, 91.113, -68.2823
250.000000, 90.967, -65.7205
254.000000, 90.809, -62.3448
258.000000, 90.670, -59.0653
262.000000, 90.490, -55.8329
265.000000, 90.343, -53.4078
269.000000, 90.147, -50.2161
272.000000, 89.995, -47.7401
276.000000, 89.790, -44.1918
280.000000, 89.598, -40.3580
285.000000, 89.359, -35.4751
290.000000, 89.116, -30.4853
295.000000, 88.896, -25.3105
300.000000, 88.688, -19.7084
304.000000, 88.528, -14.9512
307.000000, 88.431, -11.1260
311.000000, 88.360, -5.6692
315.000000, 88.399, 0.0833
320.000000, 88.655, 6.9661
325.000000, 89.049, 12.3372
330.000000, 89.383, 16.1145
335.000000, 89.559, 19.3190
340.000000, 89.610, 22.7456
345.000000, 89.609, 26.5970
350.000000, 89.613, 30.7668
355.000000, 89.639, 35.0634
360.000000, 89.679, 39.4185
365.000000, 89.734, 43.8332
370.000000, 89.822, 48.0639
375.000000, 89.907, 51.9766
382.000000, 89.964, 57.2906
387.000000, 89.975, 61.2184
395.000000, 89.990, 67.7211
400.000000, 90.006, 71.8756
406.000000, 90.044, 76.8658
412.000000, 90.081, 81.7943
418.000000, 90.109, 86.6339
425.000000, 90.138, 92.2862
431.000000, 90.156, 97.1391
437.000000, 90.166, 101.9879
444.000000, 90.172, 107.6273
450.000000, 90.170, 112.5338
455.000000, 90.167, 116.6889
462.000000, 90.168, 122.6515
468.000000, 90.184, 127.8855
475.000000, 90.235, 134.0138
482.000000, 90.308, 139.8224
487.000000, 90.354, 143.8367
494.000000, 90.389, 149.4482
500.000000, 90.405, 154.2521
508.000000, 90.412, 160.7901
515.000000, 90.408, 166.5688
522.000000, 90.405, 172.3592
530.000000, 90.406, 179.0559
538.000000, 90.412, -174.1227
545.000000, 90.418, -168.1192
552.000000, 90.427, -162.0869
560.000000, 90.436, -155.1607
570.000000, 90.446, -146.3773
580.000000, 90.473, -137.4218
590.000000, 90.525, -128.3946
600.000000, 90.597, -119.5096
608.000000, 90.656, -112.4419
615.000000, 90.707, -106.2104
622.000000, 90.763, -99.9832
630.000000, 90.828, -92.9172
640.000000, 90.915, -84.0823
650.000000, 91.003, -75.1898
660.000000, 91.105, -66.2736
670.000000, 91.230, -57.3804
680.000000, 91.358, -48.4538
690.000000, 91.494, -39.4951
700.000000, 91.635, -30.5686
710.000000, 91.783, -21.9572
720.000000, 91.942, -13.3066
730.000000, 92.107, -4.6372
740.000000, 92.274, 3.9461
750.000000, 92.443, 12.4586
762.000000, 92.650, 22.5853
775.000000, 92.874, 33.4164
788.000000, 93.091, 44.0952
800.000000, 93.291, 53.9034
812.000000, 93.482, 63.5794
825.000000, 93.668, 73.9420
838.000000, 93.833, 84.2948
850.000000, 93.968, 93.8380
862.000000, 94.087, 103.3277
875.000000, 94.197, 113.5751
885.000000, 94.267, 121.5163
900.000000, 94.350, 133.5255
912.000000, 94.407, 143.1795
925.000000, 94.463, 153.6580
938.000000, 94.512, 164.1616
950.000000, 94.552, 173.8985
962.000000, 94.582, -176.3198
975.000000, 94.607, -165.6775
988.000000, 94.626, -155.0025
1000.000000, 94.638, -145.1360
1015.000000, 94.646, -132.7424
1030.000000, 94.644, -120.2872
1044.000000, 94.637, -108.5891
1060.000000, 94.626, -95.1165
1075.000000, 94.615, -82.4176
1090.000000, 94.610, -69.6866
1106.000000, 94.611, -56.1068
1120.000000, 94.612, -44.2384
1138.000000, 94.604, -28.9925
1150.000000, 94.586, -18.8525
1172.000000, 94.501, -0.2615
1180.000000, 94.446, 6.5868
1206.000000, 94.241, 29.7311
1220.000000, 94.177, 42.6318
1241.000000, 94.159, 62.0118
1250.000000, 94.167, 70.2531
1265.000000, 94.185, 83.9180
1280.000000, 94.201, 97.5582
1315.000000, 94.226, 129.5078
1320.000000, 94.229, 134.0954
1340.000000, 94.238, 152.4778
1360.000000, 94.226, 170.8759
1380.000000, 94.218, -170.6997
1400.000000, 94.239, -152.2374
1430.000000, 94.294, -124.5670
1450.000000, 94.321, -106.1463
1475.000000, 94.337, -83.0398
1500.000000, 94.336, -59.7812
1525.000000, 94.320, -36.3358
1550.000000, 94.300, -12.7036
1575.000000, 94.282, 11.0780
1600.000000, 94.267, 35.0035
1625.000000, 94.254, 59.1189
1650.000000, 94.238, 83.4165
1675.000000, 94.207, 107.9055
1700.000000, 94.158, 132.7015
1725.000000, 94.093, 158.0752
1750.000000, 94.028, -175.5732
1775.000000, 94.037, -147.5632
1800.000000, 94.418, -117.1899
1825.000000, 95.632, -86.4393
1850.000000, 97.437, -61.4673
1875.000000, 98.769, -43.9272
1900.000000, 99.197, -28.0481
1925.000000, 99.099, -9.7377
1950.000000, 98.889, 11.3192
1975.000000, 98.772, 34.1113
2000.000000, 98.797, 57.5220
2030.000000, 98.931, 85.4713
2060.000000, 99.075, 113.1876
2090.000000, 99.200, 140.9781
2120.000000, 99.329, 168.9148
2140.000000, 99.415, -172.3724
2180.000000, 99.591, -134.6499
2200.000000, 99.687, -115.6887
2240.000000, 99.910, -77.7308
2270.000000, 100.102, -49.2493
2300.000000, 100.311, -20.7572
2330.000000, 100.529, 7.6951
2360.000000, 100.751, 36.0564
2400.000000, 101.045, 73.6851
2430.000000, 101.258, 101.8179
2470.000000, 101.527, 139.1942
2500.000000, 101.715, 167.1578
2540.000000, 101.952, -155.5117
2580.000000, 102.172, -118.1296
2620.000000, 102.364, -80.7871
2650.000000, 102.486, -52.8068
2690.000000, 102.625, -15.3665
2720.000000, 102.723, 12.8821
2760.000000, 102.848, 50.7334
2800.000000, 102.967, 88.7437
2850.000000, 103.133, 136.3750
2900.000000, 103.342, -175.9656
2950.000000, 103.590, -128.5718
3000.000000, 103.840, -81.6675
3040.000000, 104.001, -44.3413
3070.000000, 104.096, -16.3577
3110.000000, 104.199, 20.8914
3150.000000, 104.271, 57.9456
3200.000000, 104.287, 104.0322
3250.000000, 104.194, 150.2683
3300.000000, 104.007, -162.9561
3350.000000, 103.786, -115.5806
3400.000000, 103.589, -68.0237
3450.000000, 103.375, -20.7649
3500.000000, 103.054, 26.2256
3550.000000, 102.562, 73.4792
3600.000000, 101.896, 121.8496
3650.000000, 101.141, 172.1409
3700.000000, 100.488, -135.0210
3750.000000, 100.229, -80.3611
3820.000000, 100.541, -6.5430
3870.000000, 100.773, 42.9736
3950.000000, 100.620, 120.1785
4000.000000, 100.214, 169.1018
4060.000000, 99.598, -130.5046
4120.000000, 98.993, -68.5952
4180.000000, 98.507, -6.3230
4250.000000, 98.167, 59.7812
4310.000000, 97.829, 101.8694
4370.000000, 97.608, 133.8391
4440.000000, 97.568, 168.0278
4500.000000, 97.602, -163.7170
4550.000000, 97.619, -140.9050
4620.000000, 97.554, -109.9648
4680.000000, 97.387, -84.0308
4750.000000, 97.064, -53.8491
4820.000000, 96.622, -23.4104
4870.000000, 96.278, -1.2656
4940.000000, 95.859, 30.5278
5000.000000, 95.655, 58.2742
5080.000000, 95.717, 94.9067
5150.000000, 96.086, 125.6370
5220.000000, 96.592, 154.6587
5300.000000, 97.200, -174.2722
5380.000000, 97.766, -145.3901
5450.000000, 98.149, -121.4563
5520.000000, 98.341, -98.4851
5600.000000, 98.250, -72.9258
5700.000000, 97.712, -40.7070
5800.000000, 97.022, -7.3521
5900.000000, 96.422, 26.2090
6000.000000, 95.901, 59.6128
6080.000000, 95.525, 86.2354
6150.000000, 95.230, 109.3521
6220.000000, 94.971, 132.2563
6300.000000, 94.728, 158.1187
6400.000000, 94.483, -170.2534
6500.000000, 94.226, -139.5869
6600.000000, 93.890, -109.8223
6700.000000, 93.503, -80.2563
6800.000000, 93.172, -50.5210
6900.000000, 92.967, -21.1680
7000.000000, 92.846, 7.1470
7100.000000, 92.740, 34.5762
7200.000000, 92.641, 61.5415
7300.000000, 92.548, 87.9814
7400.000000, 92.460, 113.8770
7500.000000, 92.416, 139.3276
7620.000000, 92.499, 169.0186
7750.000000, 92.702, -160.3896
7880.000000, 92.758, -131.9668
8000.000000, 92.662, -106.0820
8120.000000, 92.553, -80.1743
8250.000000, 92.511, -52.9771
8380.000000, 92.572, -27.3130
8500.000000, 92.716, -4.8857
8620.000000, 92.879, 16.5483
8750.000000, 92.983, 38.1597
8850.000000, 92.993, 54.0522
9000.000000, 92.917, 76.7656
9120.000000, 92.740, 93.9126
9250.000000, 92.353, 111.8223
9380.000000, 91.731, 129.6841
9500.000000, 90.986, 146.0571
9620.000000, 90.182, 163.0596
9750.000000, 89.398, -177.7197
9880.000000, 88.936, -158.8374
10000.000000, 88.942, -142.7524
10150.000000, 89.311, -124.2827
10300.000000, 89.642, -107.5737
10440.000000, 89.761, -93.8032
10600.000000, 89.778, -79.4741
10750.000000, 89.737, -67.6060
10900.000000, 89.487, -56.4316
11060.000000, 88.894, -44.6475
11200.000000, 88.735, -34.2939
11380.000000, 89.951, -23.3901
11500.000000, 90.975, -18.8911
11720.000000, 91.573, -39.6865
11800.000000, 91.264, -45.8662
12060.000000, 88.491, 41.5488
12200.000000, 85.933, 87.2603
12410.000000, 81.200, 158.3228
12500.000000, 78.984, -167.2788
12650.000000, 75.545, -103.2363
12800.000000, 75.571, -31.8667
13150.000000, 83.303, 102.2188
13200.000000, 83.919, 117.0029
13400.000000, 85.234, 172.4575
13600.000000, 85.437, -133.5244
13800.000000, 85.065, -79.3765
14000.000000, 84.204, -24.8701
14300.000000, 82.389, 59.1201
14500.000000, 81.420, 115.7744
14750.000000, 81.454, -176.6514
15000.000000, 82.290, -117.8965
15250.000000, 81.956, -65.3418
15500.000000, 79.935, 133.6416
15750.000000, 76.668, -155.2861
16000.000000, 73.612, -87.1016
16250.000000, 73.098, -13.8057
16500.000000, 74.205, 58.3364
16750.000000, 75.649, 129.4077
17000.000000, 77.369, -164.2065
17250.000000, 78.344, -103.1309
17500.000000, 77.129, -42.6025
17750.000000, 73.205, 29.0732
18000.000000, 68.379, 115.6460
18250.000000, 69.300, -155.9653
18500.000000, 72.680, -78.5396
18750.000000, 74.955, -13.4995
19000.000000, 76.106, 50.2114
19250.000000, 76.184, 112.7070
19500.000000, 75.379, 172.8989
19750.000000, 74.038, -119.9917
20000.000000, 72.229, -53.7017
20300.000000, 69.691, 33.4355
20600.000000, 67.458, 121.0107
20900.000000, 65.181, -152.3955
21200.000000, 61.573, -59.2710
21400.000000, 58.008, 8.4414
21800.000000, 48.300, 162.9443
22000.000000, 42.785, -14.6235
22400.000000, 33.102, 7.8340
22700.000000, 28.947, -87.7734
23000.000000, 25.774, 132.7988
23300.000000, 21.610, 16.2178
23600.000000, 18.415, -38.0166
24000.000000, 17.311, 16.7070
