* Measurement data measured by REW V5.31.3
* Source: Headset (DS by VECLAN.COM), MICROPHONE (Master Volume), L, volume: 0.720. Timing signal peak level -14.1 dBFS, measurement signal peak level -10.8 dBFS
* Format: 2M Log Swept Sine, 1 sweep at -14.4 dBFS using an acoustic timing reference
* Dated: Nov 6, 2024 9:48:12 PM
* REW Settings:
*  C-weighting compensation: Off
*  Target level: 85.0 dB
* Note: ; Delay -2.1530 ms (-738 mm, -(2 ft 5.07 in)) using IR start time relative to Acoustic reference played from HEADPHONE L with no timing offset Clock adjustment: -915.5 ppm
* Measurement: Jazz ANC L1
* Smoothing: 1/24 octave
* Frequency Step: 1/48 octave
* Start Frequency: 1.000 Hz
*
* Freq(Hz), SPL(dB), Phase(degrees)
1.000000, 40.899, 152.4081
1.015000, 41.302, 151.4986
1.030000, 41.701, 150.5598
1.044000, 42.071, 149.6567
1.060000, 42.491, 148.5935
1.075000, 42.882, 147.5674
1.090000, 43.272, 146.5181
1.106000, 43.685, 145.3995
1.120000, 44.040, 144.4625
1.138000, 44.489, 143.3350
1.150000, 44.782, 142.6270
1.172000, 45.308, 141.4026
1.180000, 45.496, 140.9769
1.206000, 46.094, 139.6472
1.220000, 46.409, 138.9570
1.241000, 46.873, 137.9435
1.250000, 47.069, 137.5144
1.265000, 47.391, 136.8029
1.280000, 47.709, 136.0930
1.315000, 48.434, 134.4256
1.320000, 48.536, 134.1848
1.340000, 48.940, 133.2118
1.360000, 49.339, 132.2202
1.380000, 49.733, 131.2068
1.400000, 50.123, 130.1691
1.430000, 50.702, 128.5630
1.450000, 51.085, 127.4599
1.475000, 51.559, 126.0691
1.500000, 52.025, 124.7261
1.525000, 52.481, 123.4509
1.550000, 52.928, 122.2328
1.575000, 53.365, 121.0586
1.600000, 53.794, 119.9162
1.625000, 54.215, 118.7952
1.650000, 54.628, 117.6862
1.675000, 55.034, 116.5811
1.700000, 55.433, 115.4731
1.725000, 55.827, 114.3560
1.750000, 56.215, 113.2247
1.775000, 56.598, 112.0748
1.800000, 56.977, 110.9032
1.825000, 57.352, 109.7113
1.850000, 57.721, 108.5173
1.875000, 58.084, 107.3461
1.900000, 58.441, 106.2038
1.925000, 58.791, 105.0879
1.950000, 59.135, 103.9944
1.975000, 59.473, 102.9193
2.000000, 59.805, 101.8586
2.030000, 60.197, 100.5996
2.060000, 60.582, 99.3500
2.090000, 60.961, 98.1039
2.120000, 61.334, 96.8562
2.140000, 61.579, 96.0210
2.180000, 62.062, 94.3383
2.200000, 62.301, 93.4920
2.240000, 62.769, 91.8103
2.270000, 63.111, 90.5699
2.300000, 63.447, 89.3492
2.330000, 63.777, 88.1472
2.360000, 64.100, 86.9625
2.400000, 64.522, 85.4063
2.430000, 64.832, 84.2538
2.470000, 65.238, 82.7322
2.500000, 65.538, 81.5993
2.540000, 65.930, 80.0952
2.580000, 66.315, 78.5971
2.620000, 66.691, 77.1114
2.650000, 66.966, 76.0094
2.690000, 67.326, 74.5592
2.720000, 67.589, 73.4868
2.760000, 67.934, 72.0777
2.800000, 68.272, 70.6920
2.850000, 68.685, 68.9912
2.900000, 69.088, 67.3218
2.950000, 69.482, 65.6785
3.000000, 69.866, 64.0569
3.040000, 70.165, 62.7772
3.070000, 70.384, 61.8293
3.110000, 70.672, 60.5830
3.150000, 70.953, 59.3579
3.200000, 71.298, 57.8578
3.250000, 71.637, 56.3930
3.300000, 71.969, 54.9618
3.350000, 72.293, 53.5585
3.400000, 72.610, 52.1798
3.450000, 72.918, 50.8267
3.500000, 73.220, 49.5007
3.550000, 73.517, 48.2031
3.600000, 73.808, 46.9346
3.650000, 74.095, 45.6954
3.700000, 74.378, 44.4841
3.750000, 74.656, 43.2983
3.820000, 75.035, 41.6774
3.870000, 75.301, 40.5456
3.950000, 75.718, 38.7758
4.000000, 75.975, 37.6941
4.060000, 76.280, 36.4212
4.120000, 76.580, 35.1775
4.180000, 76.875, 33.9604
4.250000, 77.214, 32.5671
4.310000, 77.499, 31.3903
4.370000, 77.781, 30.2256
4.440000, 78.106, 28.8829
4.500000, 78.380, 27.7498
4.550000, 78.606, 26.8174
4.620000, 78.917, 25.5264
4.680000, 79.179, 24.4291
4.750000, 79.480, 23.1550
4.820000, 79.776, 21.8865
4.870000, 79.983, 20.9857
4.940000, 80.269, 19.7343
5.000000, 80.509, 18.6711
5.080000, 80.822, 17.2670
5.150000, 81.088, 16.0476
5.220000, 81.348, 14.8324
5.300000, 81.637, 13.4532
5.380000, 81.918, 12.0946
5.450000, 82.156, 10.9286
5.520000, 82.387, 9.7828
5.600000, 82.643, 8.4883
5.700000, 82.950, 6.8989
5.800000, 83.246, 5.3648
5.900000, 83.530, 3.8975
6.000000, 83.801, 2.4809
6.080000, 84.011, 1.3859
6.150000, 84.191, 0.4634
6.220000, 84.367, -0.4213
6.300000, 84.564, -1.3881
6.400000, 84.805, -2.5402
6.500000, 85.041, -3.6328
6.600000, 85.275, -4.6642
6.700000, 85.509, -5.6329
6.800000, 85.741, -6.5494
6.900000, 85.974, -7.4304
7.000000, 86.209, -8.2830
7.100000, 86.445, -9.1041
7.200000, 86.683, -9.9062
7.300000, 86.922, -10.7085
7.400000, 87.162, -11.5162
7.500000, 87.403, -12.3252
7.620000, 87.690, -13.3083
7.750000, 87.996, -14.4049
7.880000, 88.298, -15.5300
8.000000, 88.570, -16.5851
8.120000, 88.833, -17.6560
8.250000, 89.108, -18.8315
8.380000, 89.372, -20.0018
8.500000, 89.605, -21.0670
8.620000, 89.828, -22.1182
8.750000, 90.060, -23.2236
8.850000, 90.233, -24.0417
9.000000, 90.484, -25.2204
9.120000, 90.679, -26.1172
9.250000, 90.887, -27.0374
9.380000, 91.092, -27.9100
9.500000, 91.282, -28.6818
9.620000, 91.473, -29.4240
9.750000, 91.680, -30.2007
9.880000, 91.880, -30.9642
10.000000, 92.057, -31.6635
10.150000, 92.269, -32.5344
10.300000, 92.474, -33.4160
10.440000, 92.661, -34.2510
10.600000, 92.871, -35.2177
10.750000, 93.068, -36.1362
10.900000, 93.262, -37.0606
11.060000, 93.465, -38.0430
11.200000, 93.639, -38.8966
11.380000, 93.859, -39.9770
11.500000, 94.003, -40.6837
11.720000, 94.270, -41.9558
11.800000, 94.369, -42.4116
12.060000, 94.697, -43.8830
12.200000, 94.879, -44.6808
12.410000, 95.158, -45.8994
12.500000, 95.278, -46.4359
12.650000, 95.480, -47.3509
12.800000, 95.681, -48.2961
13.150000, 96.145, -50.6263
13.200000, 96.211, -50.9723
13.400000, 96.470, -52.3851
13.600000, 96.724, -53.8353
13.800000, 96.973, -55.3148
14.000000, 97.216, -56.8173
14.300000, 97.571, -59.1105
14.500000, 97.803, -60.6694
14.750000, 98.087, -62.6626
15.000000, 98.365, -64.7148
15.250000, 98.637, -66.8336
15.500000, 98.897, -69.0162
15.750000, 99.142, -71.2523
16.000000, 99.368, -73.5248
16.250000, 99.576, -75.8129
16.500000, 99.766, -78.0995
16.750000, 99.941, -80.3710
17.000000, 100.104, -82.6222
17.250000, 100.255, -84.8545
17.500000, 100.396, -87.0739
17.750000, 100.525, -89.2883
18.000000, 100.642, -91.5029
18.250000, 100.745, -93.7183
18.500000, 100.832, -95.9279
18.750000, 100.902, -98.1189
19.000000, 100.955, -100.2746
19.250000, 100.991, -102.3748
19.500000, 101.012, -104.4030
19.750000, 101.021, -106.3473
20.000000, 101.019, -108.2031
20.299999, 101.008, -110.3201
20.600000, 100.991, -112.3357
20.900000, 100.969, -114.2750
21.200001, 100.939, -116.1581
21.400000, 100.914, -117.3859
21.799999, 100.846, -119.7617
22.000000, 100.802, -120.8970
22.400000, 100.699, -123.0239
22.700001, 100.612, -124.4730
23.000000, 100.522, -125.7954
23.299999, 100.434, -127.0088
23.600000, 100.349, -128.1403
24.000000, 100.240, -129.5629
24.299999, 100.156, -130.5775
24.700001, 100.038, -131.8438
25.000000, 99.943, -132.7051
25.400000, 99.813, -133.7108
25.799999, 99.688, -134.5609
26.200001, 99.571, -135.2974
26.500000, 99.488, -135.8023
26.900000, 99.379, -136.4252
27.200001, 99.297, -136.8455
27.600000, 99.186, -137.3197
28.000000, 99.080, -137.6857
28.500000, 98.959, -138.0287
29.000000, 98.851, -138.3148
29.500000, 98.744, -138.5536
30.000000, 98.631, -138.6643
30.400000, 98.546, -138.6097
30.700001, 98.492, -138.4891
31.100000, 98.441, -138.2648
31.500000, 98.413, -138.0264
32.000000, 98.407, -137.7740
32.500000, 98.428, -137.6051
33.000000, 98.475, -137.5778
33.500000, 98.542, -137.8019
34.000000, 98.602, -138.3441
34.500000, 98.625, -139.1201
35.000000, 98.595, -139.9130
35.500000, 98.524, -140.5159
36.000000, 98.440, -140.8528
36.500000, 98.364, -140.9795
37.000000, 98.299, -140.9833
37.500000, 98.244, -140.9061
38.200001, 98.182, -140.6690
38.700001, 98.153, -140.4348
39.500000, 98.132, -140.0549
40.000000, 98.128, -139.8429
40.599998, 98.128, -139.5989
41.200001, 98.135, -139.3556
41.799999, 98.151, -139.1374
42.500000, 98.175, -138.9500
43.099998, 98.195, -138.8286
43.700001, 98.211, -138.7035
44.400002, 98.228, -138.5334
45.000000, 98.242, -138.3641
45.500000, 98.252, -138.1919
46.200001, 98.270, -137.8856
46.799999, 98.292, -137.5830
47.500000, 98.325, -137.2201
48.200001, 98.361, -136.8416
48.700001, 98.388, -136.5490
49.400002, 98.432, -136.1067
50.000000, 98.476, -135.7056
50.799999, 98.546, -135.1577
51.500000, 98.616, -134.6716
52.200001, 98.694, -134.1641
53.000000, 98.802, -133.5554
53.799999, 98.932, -132.9690
54.500000, 99.061, -132.5197
55.200001, 99.201, -132.1339
56.000000, 99.372, -131.7603
57.000000, 99.605, -131.4554
58.000000, 99.840, -131.3625
59.000000, 100.079, -131.3897
60.000000, 100.326, -131.6783
60.799999, 100.505, -132.1096
61.500000, 100.645, -132.5038
62.200001, 100.783, -132.8860
63.000000, 100.942, -133.3694
64.000000, 101.135, -134.0675
65.000000, 101.321, -134.8091
66.000000, 101.506, -135.5954
67.000000, 101.691, -136.4547
68.000000, 101.875, -137.4250
69.000000, 102.050, -138.5314
70.000000, 102.215, -139.7661
71.000000, 102.366, -141.1569
72.000000, 102.496, -142.7186
73.000000, 102.597, -144.4232
74.000000, 102.664, -146.2472
75.000000, 102.689, -148.1274
76.199997, 102.664, -150.3422
77.500000, 102.577, -152.5812
78.800003, 102.441, -154.5387
80.000000, 102.288, -156.0415
81.199997, 102.126, -157.2599
82.500000, 101.950, -158.3002
83.800003, 101.783, -159.1174
85.000000, 101.638, -159.7228
86.199997, 101.503, -160.2064
87.500000, 101.371, -160.6412
88.500000, 101.278, -160.9339
90.000000, 101.148, -161.3052
91.199997, 101.057, -161.5307
92.500000, 100.976, -161.7818
93.800003, 100.898, -162.0787
95.000000, 100.826, -162.3741
96.199997, 100.751, -162.6975
97.500000, 100.663, -163.0740
98.800003, 100.565, -163.4604
100.000000, 100.465, -163.8038
101.500000, 100.326, -164.1818
103.000000, 100.176, -164.5049
104.400002, 100.024, -164.7469
106.000000, 99.843, -164.9266
107.500000, 99.668, -164.9949
109.000000, 99.493, -164.9628
110.599998, 99.303, -164.8315
112.000000, 99.131, -164.6323
113.800003, 98.904, -164.2728
115.000000, 98.753, -163.9674
117.199997, 98.487, -163.2865
118.000000, 98.395, -163.0036
120.599998, 98.094, -161.7969
122.000000, 97.947, -160.8607
124.099998, 97.751, -159.3695
125.000000, 97.671, -158.7107
126.500000, 97.547, -157.5859
128.000000, 97.439, -156.4569
131.500000, 97.241, -153.7447
132.000000, 97.218, -153.3387
134.000000, 97.143, -151.7095
136.000000, 97.086, -150.0925
138.000000, 97.050, -148.5018
140.000000, 97.037, -146.9741
143.000000, 97.045, -144.7590
145.000000, 97.064, -143.3483
147.500000, 97.101, -141.6785
150.000000, 97.152, -140.1155
152.500000, 97.210, -138.6526
155.000000, 97.271, -137.2870
157.500000, 97.340, -136.0397
160.000000, 97.420, -134.9148
162.500000, 97.502, -133.8871
165.000000, 97.563, -132.9083
167.500000, 97.618, -131.9344
170.000000, 97.673, -131.0588
172.500000, 97.730, -130.2704
175.000000, 97.778, -129.5475
177.500000, 97.819, -128.8732
180.000000, 97.854, -128.2737
182.500000, 97.880, -127.7104
185.000000, 97.899, -127.1569
187.500000, 97.909, -126.6345
190.000000, 97.906, -126.1293
192.500000, 97.892, -125.6097
195.000000, 97.871, -125.0460
197.500000, 97.845, -124.4143
200.000000, 97.822, -123.7228
203.000000, 97.801, -122.8875
206.000000, 97.783, -122.1278
209.000000, 97.755, -121.4475
212.000000, 97.712, -120.7814
214.000000, 97.676, -120.3173
218.000000, 97.590, -119.2739
220.000000, 97.545, -118.6850
224.000000, 97.464, -117.4476
227.000000, 97.407, -116.5493
230.000000, 97.345, -115.6914
233.000000, 97.274, -114.8315
236.000000, 97.194, -113.9216
240.000000, 97.079, -112.6093
243.000000, 96.989, -111.5643
247.000000, 96.875, -110.0919
250.000000, 96.797, -108.9696
254.000000, 96.694, -107.4944
258.000000, 96.586, -106.0367
262.000000, 96.469, -104.5602
265.000000, 96.375, -103.4468
269.000000, 96.243, -101.9395
272.000000, 96.139, -100.7679
276.000000, 95.986, -99.1207
280.000000, 95.822, -97.3323
285.000000, 95.616, -94.8014
290.000000, 95.441, -91.9619
295.000000, 95.317, -89.0931
300.000000, 95.214, -86.4649
304.000000, 95.114, -84.4613
307.000000, 95.020, -82.8861
311.000000, 94.882, -80.4886
315.000000, 94.778, -77.6470
320.000000, 94.772, -73.9210
325.000000, 94.879, -70.9421
330.000000, 94.969, -68.9678
335.000000, 94.961, -67.4437
340.000000, 94.854, -65.8661
345.000000, 94.676, -63.9786
350.000000, 94.457, -61.6266
355.000000, 94.242, -58.7469
360.000000, 94.078, -55.5485
365.000000, 93.961, -52.4166
370.000000, 93.850, -49.4177
375.000000, 93.732, -46.3517
382.000000, 93.580, -41.8206
387.000000, 93.491, -38.4960
395.000000, 93.380, -33.1632
400.000000, 93.330, -29.7939
406.000000, 93.302, -25.7384
412.000000, 93.296, -21.8291
418.000000, 93.287, -18.0278
425.000000, 93.292, -13.6213
431.000000, 93.310, -9.9453
437.000000, 93.328, -6.4275
444.000000, 93.335, -2.4325
450.000000, 93.324, 0.9995
455.000000, 93.306, 3.9029
462.000000, 93.278, 8.0881
468.000000, 93.265, 11.8135
475.000000, 93.280, 16.1600
482.000000, 93.313, 20.2833
487.000000, 93.329, 23.1183
494.000000, 93.336, 27.0690
500.000000, 93.332, 30.4961
508.000000, 93.320, 35.1380
515.000000, 93.310, 39.2599
522.000000, 93.299, 43.4306
530.000000, 93.286, 48.2425
538.000000, 93.277, 53.1048
545.000000, 93.273, 57.3924
552.000000, 93.272, 61.7221
560.000000, 93.274, 66.7437
570.000000, 93.286, 73.1804
580.000000, 93.338, 79.8216
590.000000, 93.448, 86.3017
600.000000, 93.552, 92.4285
608.000000, 93.617, 97.3489
615.000000, 93.674, 101.7154
622.000000, 93.737, 106.1228
630.000000, 93.819, 111.1977
640.000000, 93.938, 117.5856
650.000000, 94.074, 123.9799
660.000000, 94.234, 130.3275
670.000000, 94.412, 136.5820
680.000000, 94.607, 142.7329
690.000000, 94.823, 148.7806
700.000000, 95.057, 154.7007
710.000000, 95.302, 160.4556
720.000000, 95.551, 166.0203
730.000000, 95.799, 171.3908
740.000000, 96.038, 176.5699
750.000000, 96.262, -178.3813
762.000000, 96.516, -172.4223
775.000000, 96.771, -166.1581
788.000000, 96.998, -160.0719
800.000000, 97.183, -154.5447
812.000000, 97.341, -149.0798
825.000000, 97.480, -143.2043
838.000000, 97.589, -137.3404
850.000000, 97.671, -131.9015
862.000000, 97.733, -126.4084
875.000000, 97.778, -120.3998
885.000000, 97.798, -115.7488
900.000000, 97.808, -108.7230
912.000000, 97.797, -103.0363
925.000000, 97.770, -96.7744
938.000000, 97.731, -90.3962
950.000000, 97.686, -84.4136
962.000000, 97.635, -78.3421
975.000000, 97.571, -71.6676
988.000000, 97.500, -64.8945
1000.000000, 97.430, -58.5488
1015.000000, 97.339, -50.4851
1030.000000, 97.248, -42.2826
1044.000000, 97.165, -34.5189
1060.000000, 97.074, -25.5506
1075.000000, 96.989, -17.0451
1090.000000, 96.907, -8.4255
1106.000000, 96.823, 0.9142
1120.000000, 96.745, 9.2874
1138.000000, 96.656, 20.5012
1150.000000, 96.630, 28.2882
1172.000000, 96.705, 42.9663
1180.000000, 96.779, 48.2819
1206.000000, 97.138, 64.6201
1220.000000, 97.349, 72.6689
1241.000000, 97.611, 84.1192
1250.000000, 97.697, 88.9397
1265.000000, 97.809, 96.9830
1280.000000, 97.888, 105.0927
1315.000000, 97.998, 124.3992
1320.000000, 98.009, 127.2032
1340.000000, 98.043, 138.5064
1360.000000, 98.055, 149.9383
1380.000000, 98.070, 161.5129
1400.000000, 98.110, 173.2311
1430.000000, 98.199, -169.0633
1450.000000, 98.272, -157.2644
1475.000000, 98.375, -142.5411
1500.000000, 98.485, -127.8364
1525.000000, 98.594, -113.1946
1550.000000, 98.693, -98.5959
1575.000000, 98.778, -83.9826
1600.000000, 98.854, -69.3091
1625.000000, 98.925, -54.5519
1650.000000, 98.994, -39.6834
1675.000000, 99.069, -24.7341
1700.000000, 99.156, -9.7707
1725.000000, 99.247, 5.1345
1750.000000, 99.331, 20.0095
1775.000000, 99.405, 34.9382
1800.000000, 99.472, 49.9994
1825.000000, 99.540, 65.2062
1850.000000, 99.611, 80.5775
1875.000000, 99.699, 96.2567
1900.000000, 99.848, 112.2485
1925.000000, 100.075, 127.9735
1950.000000, 100.316, 143.0135
1975.000000, 100.517, 157.6514
2000.000000, 100.680, 172.2599
2030.000000, 100.850, -170.0702
2060.000000, 101.009, -152.2234
2090.000000, 101.170, -134.2498
2120.000000, 101.341, -116.2416
2140.000000, 101.456, -104.2599
2180.000000, 101.674, -80.2786
2200.000000, 101.783, -68.2758
2240.000000, 102.005, -44.3195
2270.000000, 102.168, -26.3911
2300.000000, 102.327, -8.4331
2330.000000, 102.493, 9.6038
2360.000000, 102.672, 27.6940
2400.000000, 102.924, 51.7635
2430.000000, 103.117, 69.7585
2470.000000, 103.378, 93.6564
2500.000000, 103.570, 111.4340
2540.000000, 103.813, 134.9270
2580.000000, 104.043, 158.3530
2620.000000, 104.261, -178.2039
2650.000000, 104.414, -160.6466
2690.000000, 104.601, -137.2810
2720.000000, 104.728, -119.7631
2760.000000, 104.878, -96.4225
2800.000000, 105.006, -73.1045
2850.000000, 105.141, -43.8982
2900.000000, 105.258, -14.6233
2950.000000, 105.358, 14.7205
3000.000000, 105.451, 44.2021
3040.000000, 105.520, 67.8831
3070.000000, 105.572, 85.7034
3110.000000, 105.650, 109.5471
3150.000000, 105.743, 133.3557
3200.000000, 105.875, 162.7323
3250.000000, 106.050, -169.3553
3300.000000, 106.182, -147.8695
3350.000000, 106.058, -135.5361
3400.000000, 105.849, -127.5973
3450.000000, 105.533, -120.6389
3500.000000, 105.023, -113.4663
3550.000000, 104.338, -104.6641
3600.000000, 103.736, -93.1672
3650.000000, 103.517, -80.5438
3700.000000, 103.676, -69.1034
3750.000000, 104.046, -60.2836
3820.000000, 104.352, -52.5791
3870.000000, 104.178, -48.2913
3950.000000, 103.345, -40.2356
4000.000000, 102.647, -33.8198
4060.000000, 101.779, -24.6781
4120.000000, 100.951, -14.1831
4180.000000, 100.209, -2.5444
4250.000000, 99.540, 12.3409
4310.000000, 99.227, 25.8472
4370.000000, 99.212, 39.1383
4440.000000, 99.526, 52.9854
4500.000000, 99.964, 62.9014
4550.000000, 100.356, 69.7979
4620.000000, 100.831, 77.5994
4680.000000, 101.094, 82.9102
4750.000000, 101.200, 88.2087
4820.000000, 101.111, 93.5645
4870.000000, 100.969, 97.9766
4940.000000, 100.776, 105.3569
5000.000000, 100.772, 112.4158
5080.000000, 101.115, 120.8239
5150.000000, 101.591, 126.0834
5220.000000, 102.072, 129.2446
5300.000000, 102.503, 130.6639
5380.000000, 102.700, 130.0570
5450.000000, 102.596, 128.3203
5520.000000, 102.192, 126.2622
5600.000000, 101.387, 124.6216
5700.000000, 100.064, 124.8453
5800.000000, 98.732, 127.8026
5900.000000, 97.555, 132.1228
6000.000000, 96.489, 136.6346
6080.000000, 95.682, 140.2996
6150.000000, 95.013, 143.7290
6220.000000, 94.393, 147.4723
6300.000000, 93.775, 151.9569
6400.000000, 93.126, 156.8671
6500.000000, 92.465, 160.7383
6600.000000, 91.681, 164.7974
6700.000000, 90.887, 170.2329
6800.000000, 90.372, 177.2023
6900.000000, 90.368, -175.6439
7000.000000, 90.782, -170.1859
7100.000000, 91.377, -167.2236
7200.000000, 91.979, -166.5103
7300.000000, 92.501, -167.4343
7400.000000, 92.923, -169.3881
7500.000000, 93.281, -171.8713
7620.000000, 93.721, -175.3136
7750.000000, 94.294, -179.8398
7880.000000, 94.896, 174.3599
8000.000000, 95.485, 167.7587
8120.000000, 96.169, 159.7792
8250.000000, 97.025, 148.7242
8380.000000, 97.793, 134.4220
8500.000000, 98.127, 118.7753
8620.000000, 97.935, 102.4264
8750.000000, 97.315, 85.7671
8850.000000, 96.764, 73.8573
9000.000000, 95.910, 57.4155
9120.000000, 95.097, 49.4948
9250.000000, 94.197, 54.7445
9380.000000, 93.401, 72.0264
9500.000000, 92.912, 92.0808
9620.000000, 92.788, 112.3109
9750.000000, 92.933, 131.9932
9880.000000, 93.077, 148.9299
10000.000000, 93.015, 163.0117
10150.000000, 92.526, -179.5929
10300.000000, 91.592, -159.5720
10440.000000, 90.691, -135.1631
10600.000000, 90.725, -100.3583
10750.000000, 92.348, -70.2891
10900.000000, 94.697, -50.0889
11060.000000, 96.915, -39.4089
11200.000000, 97.953, -36.9016
11380.000000, 97.528, -36.3860
11500.000000, 96.240, -33.3156
11720.000000, 92.808, -16.2183
11800.000000, 91.515, -5.8013
12060.000000, 88.898, 41.0509
12200.000000, 88.891, 64.8987
12410.000000, 89.321, 92.2593
12500.000000, 89.460, 102.5762
12650.000000, 89.685, 118.7466
12800.000000, 89.936, 133.0210
13150.000000, 89.537, 156.5391
13200.000000, 89.254, 159.4124
13400.000000, 87.476, 172.3379
13600.000000, 84.835, -168.6030
13800.000000, 81.996, -138.4910
14000.000000, 80.433, -96.8037
14300.000000, 82.206, -41.8838
14500.000000, 84.268, -35.8538
14750.000000, 86.791, -110.3838
15000.000000, 86.965, -108.4490
15250.000000, 83.061, -94.4316
15500.000000, 76.582, -20.4482
15750.000000, 73.602, 77.3611
16000.000000, 73.724, 134.4763
16250.000000, 74.234, -171.6655
16500.000000, 74.510, -123.9353
16750.000000, 74.053, -78.9375
17000.000000, 73.158, -25.8022
17250.000000, 73.024, 30.7185
17500.000000, 72.792, 76.3665
17750.000000, 71.629, 124.0217
18000.000000, 70.937, -163.4824
18250.000000, 73.283, -78.2556
18500.000000, 77.091, -22.9319
18750.000000, 80.613, 16.0623
19000.000000, 83.045, 44.1406
19250.000000, 83.982, 67.9453
19500.000000, 83.590, 93.5393
19750.000000, 82.288, 124.1643
20000.000000, 80.499, 160.9976
20300.000000, 78.199, -151.8550
20600.000000, 75.502, -108.7395
20900.000000, 71.634, -68.6338
21200.000000, 66.162, -25.4956
21400.000000, 61.678, 13.3225
21800.000000, 52.198, 123.3398
22000.000000, 47.942, 163.5728
22400.000000, 39.922, -145.2427
22700.000000, 33.917, -120.1316
23000.000000, 28.145, -94.3035
23300.000000, 22.742, 66.5264
23600.000000, 18.868, 108.8066
24000.000000, 17.029, 130.4514
