* Measurement data measured by REW V5.31.3
* Source: Headset (DS by VECLAN.COM), MICROPHONE (Master Volume), L, volume: 0.720. Timing signal peak level -12.4 dBFS, measurement signal peak level -8.7 dBFS
* Format: 2M Log Swept Sine, 1 sweep at -14.4 dBFS using an acoustic timing reference
* Dated: Nov 5, 2024 9:19:54 PM
* REW Settings:
*  C-weighting compensation: Off
*  Target level: 85.0 dB
* Note: ; Delay -2.1889 ms (-751 mm, -(2 ft 5.56 in)) using estimated IR delay relative to Acoustic reference played from HEADPHONE R with no timing offset Clock adjustment: -512.8 ppm
* Measurement: Electronic Passive R3
* Smoothing: 1/24 octave
* Frequency Step: 1/48 octave
* Start Frequency: 1.000 Hz
*
* Freq(Hz), SPL(dB), Phase(degrees)
1.000000, 45.944, -155.3315
1.015000, 46.128, -155.7325
1.030000, 46.311, -156.2024
1.044000, 46.480, -156.7050
1.060000, 46.671, -157.3572
1.075000, 46.848, -158.0456
1.090000, 47.022, -158.8079
1.106000, 47.205, -159.6876
1.120000, 47.365, -160.4860
1.138000, 47.570, -161.5299
1.150000, 47.707, -162.2343
1.172000, 47.959, -163.5416
1.180000, 48.051, -164.0222
1.206000, 48.350, -165.6037
1.220000, 48.512, -166.4683
1.241000, 48.755, -167.7842
1.250000, 48.860, -168.3557
1.265000, 49.034, -169.3192
1.280000, 49.208, -170.2974
1.315000, 49.617, -172.6453
1.320000, 49.675, -172.9890
1.340000, 49.909, -174.3870
1.360000, 50.144, -175.8251
1.380000, 50.379, -177.3074
1.400000, 50.614, -178.8383
1.430000, 50.968, 178.7650
1.450000, 51.204, 177.0954
1.475000, 51.501, 174.9368
1.500000, 51.798, 172.7418
1.525000, 52.097, 170.5426
1.550000, 52.397, 168.3527
1.575000, 52.698, 166.1794
1.600000, 53.000, 164.0261
1.625000, 53.302, 161.8940
1.650000, 53.605, 159.7814
1.675000, 53.908, 157.6852
1.700000, 54.211, 155.6006
1.725000, 54.514, 153.5221
1.750000, 54.816, 151.4432
1.775000, 55.117, 149.3572
1.800000, 55.418, 147.2572
1.825000, 55.718, 145.1388
1.850000, 56.017, 143.0084
1.875000, 56.318, 140.8849
1.900000, 56.620, 138.7830
1.925000, 56.922, 136.7112
1.950000, 57.224, 134.6749
1.975000, 57.526, 132.6768
2.000000, 57.828, 130.7176
2.030000, 58.188, 128.4166
2.060000, 58.545, 126.1666
2.090000, 58.900, 123.9614
2.120000, 59.250, 121.7939
2.140000, 59.481, 120.3657
2.180000, 59.936, 117.5381
2.200000, 60.159, 116.1342
2.240000, 60.602, 113.3464
2.270000, 60.930, 111.2837
2.300000, 61.255, 109.2549
2.330000, 61.576, 107.2661
2.360000, 61.894, 105.3207
2.400000, 62.312, 102.7967
2.430000, 62.620, 100.9554
2.470000, 63.024, 98.5652
2.500000, 63.321, 96.8170
2.540000, 63.710, 94.5366
2.580000, 64.089, 92.2989
2.620000, 64.459, 90.0877
2.650000, 64.731, 88.4490
2.690000, 65.086, 86.2997
2.720000, 65.347, 84.7197
2.760000, 65.688, 82.6617
2.800000, 66.022, 80.6628
2.850000, 66.428, 78.2496
2.900000, 66.824, 75.9286
2.950000, 67.208, 73.6823
3.000000, 67.580, 71.4778
3.040000, 67.868, 69.7419
3.070000, 68.080, 68.4605
3.110000, 68.355, 66.7849
3.150000, 68.625, 65.1518
3.200000, 68.953, 63.1765
3.250000, 69.274, 61.2792
3.300000, 69.587, 59.4567
3.350000, 69.891, 57.6874
3.400000, 70.185, 55.9559
3.450000, 70.470, 54.2651
3.500000, 70.748, 52.6213
3.550000, 71.019, 51.0304
3.600000, 71.285, 49.4973
3.650000, 71.547, 48.0240
3.700000, 71.803, 46.6043
3.750000, 72.054, 45.2266
3.820000, 72.395, 43.3600
3.870000, 72.632, 42.0703
3.950000, 73.005, 40.0826
4.000000, 73.236, 38.8882
4.060000, 73.509, 37.5041
4.120000, 73.777, 36.1700
4.180000, 74.042, 34.8789
4.250000, 74.345, 33.4170
4.310000, 74.602, 32.1946
4.370000, 74.857, 30.9958
4.440000, 75.152, 29.6283
4.500000, 75.402, 28.4866
4.550000, 75.608, 27.5541
4.620000, 75.894, 26.2693
4.680000, 76.136, 25.1799
4.750000, 76.414, 23.9154
4.820000, 76.688, 22.6583
4.870000, 76.882, 21.7682
4.940000, 77.150, 20.5331
5.000000, 77.376, 19.4825
5.080000, 77.671, 18.0881
5.150000, 77.923, 16.8694
5.220000, 78.170, 15.6501
5.300000, 78.445, 14.2614
5.380000, 78.712, 12.8846
5.450000, 78.939, 11.6934
5.520000, 79.159, 10.5121
5.600000, 79.403, 9.1665
5.700000, 79.695, 7.4994
5.800000, 79.975, 5.8702
5.900000, 80.242, 4.2875
6.000000, 80.496, 2.7355
6.080000, 80.691, 1.5199
6.150000, 80.856, 0.4845
6.220000, 81.017, -0.5200
6.300000, 81.195, -1.6340
6.400000, 81.409, -2.9850
6.500000, 81.615, -4.2849
6.600000, 81.816, -5.5251
6.700000, 82.011, -6.7080
6.800000, 82.202, -7.8418
6.900000, 82.389, -8.9299
7.000000, 82.574, -9.9730
7.100000, 82.757, -10.9730
7.200000, 82.938, -11.9370
7.300000, 83.118, -12.8732
7.400000, 83.297, -13.7845
7.500000, 83.475, -14.6713
7.620000, 83.687, -15.7113
7.750000, 83.915, -16.8184
7.880000, 84.139, -17.9060
8.000000, 84.343, -18.8942
8.120000, 84.544, -19.8710
8.250000, 84.756, -20.9166
8.380000, 84.964, -21.9454
8.500000, 85.151, -22.8789
8.620000, 85.334, -23.7978
8.750000, 85.528, -24.7726
8.850000, 85.673, -25.5062
9.000000, 85.887, -26.5817
9.120000, 86.053, -27.4196
9.250000, 86.231, -28.3039
9.380000, 86.405, -29.1656
9.500000, 86.563, -29.9423
9.620000, 86.720, -30.7017
9.750000, 86.886, -31.5063
9.880000, 87.042, -32.2939
10.000000, 87.174, -33.0070
10.150000, 87.326, -33.8802
10.300000, 87.467, -34.7339
10.440000, 87.592, -35.5137
10.600000, 87.731, -36.3840
10.750000, 87.861, -37.1789
10.900000, 87.990, -37.9537
11.060000, 88.125, -38.7567
11.200000, 88.242, -39.4401
11.380000, 88.389, -40.2936
11.500000, 88.486, -40.8474
11.720000, 88.664, -41.8352
11.800000, 88.729, -42.1865
12.060000, 88.943, -43.3035
12.200000, 89.059, -43.8920
12.410000, 89.234, -44.7604
12.500000, 89.308, -45.1279
12.650000, 89.431, -45.7346
12.800000, 89.551, -46.3341
13.150000, 89.827, -47.7040
13.200000, 89.866, -47.8962
13.400000, 90.021, -48.6559
13.600000, 90.175, -49.3999
13.800000, 90.327, -50.1277
14.000000, 90.477, -50.8385
14.300000, 90.697, -51.8712
14.500000, 90.841, -52.5360
14.750000, 91.017, -53.3386
15.000000, 91.193, -54.1089
15.250000, 91.373, -54.8478
15.500000, 91.554, -55.5594
15.750000, 91.735, -56.2509
16.000000, 91.917, -56.9315
16.250000, 92.100, -57.6113
16.500000, 92.282, -58.2982
16.750000, 92.463, -58.9967
17.000000, 92.643, -59.7061
17.250000, 92.819, -60.4211
17.500000, 92.990, -61.1337
17.750000, 93.156, -61.8344
18.000000, 93.317, -62.5156
18.250000, 93.474, -63.1732
18.500000, 93.630, -63.8071
18.750000, 93.786, -64.4214
19.000000, 93.943, -65.0221
19.250000, 94.100, -65.6160
19.500000, 94.257, -66.2080
19.750000, 94.414, -66.8005
20.000000, 94.568, -67.3934
20.299999, 94.750, -68.1024
20.600000, 94.930, -68.8054
20.900000, 95.107, -69.5020
21.200001, 95.283, -70.1953
21.400000, 95.399, -70.6585
21.799999, 95.627, -71.5935
22.000000, 95.739, -72.0660
22.400000, 95.957, -73.0161
22.700001, 96.117, -73.7248
23.000000, 96.272, -74.4237
23.299999, 96.426, -75.1119
23.600000, 96.578, -75.7936
24.000000, 96.781, -76.7056
24.299999, 96.931, -77.3988
24.700001, 97.127, -78.3352
25.000000, 97.270, -79.0392
25.400000, 97.454, -79.9680
25.799999, 97.634, -80.8823
26.200001, 97.812, -81.7919
26.500000, 97.944, -82.4796
26.900000, 98.116, -83.4081
27.200001, 98.241, -84.1095
27.600000, 98.403, -85.0435
28.000000, 98.559, -85.9736
28.500000, 98.746, -87.1422
29.000000, 98.920, -88.3193
29.500000, 99.073, -89.4576
30.000000, 99.209, -90.4820
30.400000, 99.313, -91.1969
30.700001, 99.392, -91.6825
31.100000, 99.499, -92.2844
31.500000, 99.607, -92.8395
32.000000, 99.738, -93.4167
32.500000, 99.880, -93.7867
33.000000, 100.063, -93.9779
33.500000, 100.309, -94.2067
34.000000, 100.611, -94.7615
34.500000, 100.926, -95.8060
35.000000, 101.210, -97.2916
35.500000, 101.438, -99.0247
36.000000, 101.610, -100.7902
36.500000, 101.741, -102.4426
37.000000, 101.853, -103.9422
37.500000, 101.959, -105.3271
38.200001, 102.098, -107.1647
38.700001, 102.186, -108.4038
39.500000, 102.317, -110.1752
40.000000, 102.405, -111.1617
40.599998, 102.523, -112.3090
41.200001, 102.645, -113.4773
41.799999, 102.764, -114.6623
42.500000, 102.898, -116.0443
43.099998, 103.009, -117.2430
43.700001, 103.111, -118.4594
44.400002, 103.217, -119.8540
45.000000, 103.303, -120.9934
45.500000, 103.378, -121.9230
46.200001, 103.489, -123.2769
46.799999, 103.579, -124.5243
47.500000, 103.665, -126.0145
48.200001, 103.736, -127.4421
48.700001, 103.784, -128.4222
49.400002, 103.847, -129.7748
50.000000, 103.891, -130.8958
50.799999, 103.943, -132.2584
51.500000, 103.994, -133.3639
52.200001, 104.047, -134.4659
53.000000, 104.100, -135.6945
53.799999, 104.152, -136.8558
54.500000, 104.200, -137.8566
55.200001, 104.249, -138.8461
56.000000, 104.311, -139.9519
57.000000, 104.403, -141.3584
58.000000, 104.509, -142.8188
59.000000, 104.629, -144.4290
60.000000, 104.736, -146.2033
60.799999, 104.813, -147.6464
61.500000, 104.878, -148.9645
62.200001, 104.933, -150.3689
63.000000, 104.970, -152.0222
64.000000, 104.985, -154.0295
65.000000, 104.980, -155.8958
66.000000, 104.978, -157.6653
67.000000, 104.974, -159.4330
68.000000, 104.965, -161.1483
69.000000, 104.966, -162.8626
70.000000, 104.965, -164.6567
71.000000, 104.967, -166.4856
72.000000, 104.983, -168.5049
73.000000, 104.983, -170.8701
74.000000, 104.936, -173.4344
75.000000, 104.849, -176.0276
76.199997, 104.699, -179.1223
77.500000, 104.470, 177.7042
78.800003, 104.191, 174.9265
80.000000, 103.912, 172.7045
81.199997, 103.620, 170.7559
82.500000, 103.302, 168.8958
83.800003, 102.996, 167.2378
85.000000, 102.736, 165.8398
86.199997, 102.496, 164.5327
87.500000, 102.243, 163.2515
88.500000, 102.053, 162.4617
90.000000, 101.808, 161.3448
91.199997, 101.589, 160.1157
92.500000, 101.279, 158.8654
93.800003, 100.957, 157.7901
95.000000, 100.665, 156.7733
96.199997, 100.377, 155.6204
97.500000, 100.032, 154.2077
98.800003, 99.632, 152.9114
100.000000, 99.230, 151.8687
101.500000, 98.650, 150.6055
103.000000, 97.948, 149.8384
104.400002, 97.230, 149.7513
106.000000, 96.332, 150.3688
107.500000, 95.441, 152.2391
109.000000, 94.618, 155.4730
110.599998, 93.908, 160.3038
112.000000, 93.511, 165.4369
113.800003, 93.298, 172.3738
115.000000, 93.288, 176.8530
117.199997, 93.338, -176.0633
118.000000, 93.346, -173.6909
120.599998, 93.718, -167.0039
122.000000, 93.983, -166.4111
124.099998, 94.261, -165.7733
125.000000, 94.407, -165.2943
126.500000, 94.656, -164.4266
128.000000, 94.868, -163.5162
131.500000, 95.195, -161.9845
132.000000, 95.231, -161.8669
134.000000, 95.377, -161.5411
136.000000, 95.517, -161.3505
138.000000, 95.630, -161.1292
140.000000, 95.695, -161.1621
143.000000, 95.694, -161.0767
145.000000, 95.705, -160.9617
147.500000, 95.714, -161.0673
150.000000, 95.730, -161.1989
152.500000, 95.701, -161.2468
155.000000, 95.600, -161.1500
157.500000, 95.521, -161.4526
160.000000, 95.537, -161.8628
162.500000, 95.616, -162.0488
165.000000, 95.419, -162.6728
167.500000, 95.010, -162.4742
170.000000, 94.719, -162.2231
172.500000, 94.525, -161.9526
175.000000, 94.330, -161.4128
177.500000, 94.084, -161.2116
180.000000, 93.828, -160.8956
182.500000, 93.583, -160.3411
185.000000, 93.309, -159.3416
187.500000, 93.044, -158.3129
190.000000, 92.787, -157.3567
192.500000, 92.527, -156.2195
195.000000, 92.261, -155.0003
197.500000, 91.997, -153.7605
200.000000, 91.755, -152.4489
203.000000, 91.480, -150.8033
206.000000, 91.190, -149.1820
209.000000, 90.903, -147.4580
212.000000, 90.620, -145.6221
214.000000, 90.438, -144.2821
218.000000, 90.092, -141.5807
220.000000, 89.928, -140.2125
224.000000, 89.617, -137.3755
227.000000, 89.385, -135.3206
230.000000, 89.142, -133.3602
233.000000, 88.889, -131.3118
236.000000, 88.599, -129.1800
240.000000, 88.192, -125.9745
243.000000, 87.977, -123.2292
247.000000, 87.733, -119.5016
250.000000, 87.547, -116.8547
254.000000, 87.326, -113.7290
258.000000, 87.102, -110.6631
262.000000, 86.832, -107.3474
265.000000, 86.614, -104.8309
269.000000, 86.345, -101.3831
272.000000, 86.174, -98.6540
276.000000, 85.946, -95.0016
280.000000, 85.692, -91.0939
285.000000, 85.399, -86.0844
290.000000, 85.120, -81.1088
295.000000, 84.858, -75.8710
300.000000, 84.610, -70.2697
304.000000, 84.421, -65.6482
307.000000, 84.299, -61.9753
311.000000, 84.197, -56.7212
315.000000, 84.205, -51.2250
320.000000, 84.388, -44.6525
325.000000, 84.698, -39.4408
330.000000, 84.959, -35.6584
335.000000, 85.072, -32.3843
340.000000, 85.074, -28.9396
345.000000, 85.033, -25.1304
350.000000, 84.991, -20.9775
355.000000, 84.966, -16.6931
360.000000, 84.963, -12.3246
365.000000, 85.009, -7.9214
370.000000, 85.078, -3.8236
375.000000, 85.119, -0.1027
382.000000, 85.112, 5.1468
387.000000, 85.089, 9.1293
395.000000, 85.070, 15.6959
400.000000, 85.071, 19.8141
406.000000, 85.086, 24.7583
412.000000, 85.111, 29.6334
418.000000, 85.135, 34.4465
425.000000, 85.165, 40.0152
431.000000, 85.188, 44.7365
437.000000, 85.206, 49.4952
444.000000, 85.225, 55.0917
450.000000, 85.247, 59.9448
455.000000, 85.273, 64.0186
462.000000, 85.323, 69.6678
468.000000, 85.377, 74.4467
475.000000, 85.430, 79.8981
482.000000, 85.474, 85.2359
487.000000, 85.502, 89.0711
494.000000, 85.535, 94.5095
500.000000, 85.559, 99.2082
508.000000, 85.590, 105.5082
515.000000, 85.613, 111.0696
522.000000, 85.637, 116.6617
530.000000, 85.673, 123.1159
538.000000, 85.716, 129.6722
545.000000, 85.758, 135.4249
552.000000, 85.809, 141.1942
560.000000, 85.876, 147.8617
570.000000, 85.977, 156.2994
580.000000, 86.114, 164.7820
590.000000, 86.278, 173.1196
600.000000, 86.449, -178.5868
608.000000, 86.596, -172.0148
615.000000, 86.732, -166.2853
622.000000, 86.873, -160.5613
630.000000, 87.041, -154.0461
640.000000, 87.263, -145.9366
650.000000, 87.500, -137.8906
660.000000, 87.754, -129.9164
670.000000, 88.024, -122.1161
680.000000, 88.299, -114.4697
690.000000, 88.575, -106.9031
700.000000, 88.851, -99.4068
710.000000, 89.130, -92.0271
720.000000, 89.412, -84.7816
730.000000, 89.695, -77.5979
740.000000, 89.978, -70.5112
750.000000, 90.256, -63.5425
762.000000, 90.582, -55.2932
775.000000, 90.918, -46.4445
788.000000, 91.243, -37.7423
800.000000, 91.530, -29.7941
812.000000, 91.802, -21.9475
825.000000, 92.083, -13.5371
838.000000, 92.348, -5.1993
850.000000, 92.578, 2.4560
862.000000, 92.791, 10.0806
875.000000, 93.005, 18.3272
885.000000, 93.161, 24.6685
900.000000, 93.380, 34.1523
912.000000, 93.542, 41.7396
925.000000, 93.708, 49.9744
938.000000, 93.864, 58.2048
950.000000, 93.998, 65.8038
962.000000, 94.120, 73.4171
975.000000, 94.233, 81.6714
988.000000, 94.330, 89.9203
1000.000000, 94.408, 97.5651
1015.000000, 94.493, 107.1777
1030.000000, 94.565, 116.8703
1044.000000, 94.624, 125.9918
1060.000000, 94.680, 136.4705
1075.000000, 94.722, 146.3370
1090.000000, 94.759, 156.2398
1106.000000, 94.798, 166.8766
1120.000000, 94.834, 176.2619
1138.000000, 94.881, -171.5776
1150.000000, 94.912, -163.4481
1172.000000, 94.958, -148.6132
1180.000000, 94.964, -143.2687
1206.000000, 94.897, -125.8497
1220.000000, 94.814, -116.0651
1241.000000, 94.722, -100.6793
1250.000000, 94.709, -93.9719
1265.000000, 94.713, -82.8008
1280.000000, 94.735, -71.6732
1315.000000, 94.808, -45.8146
1320.000000, 94.818, -42.1232
1340.000000, 94.856, -27.3575
1360.000000, 94.873, -12.5449
1380.000000, 94.892, 2.3585
1400.000000, 94.935, 17.3475
1430.000000, 95.015, 39.8348
1450.000000, 95.066, 54.7963
1475.000000, 95.122, 73.5533
1500.000000, 95.168, 92.4349
1525.000000, 95.206, 111.4355
1550.000000, 95.239, 130.5576
1575.000000, 95.271, 149.7952
1600.000000, 95.297, 169.1531
1625.000000, 95.315, -171.3547
1650.000000, 95.320, -151.6830
1675.000000, 95.306, -131.7642
1700.000000, 95.266, -111.4604
1725.000000, 95.202, -90.5192
1750.000000, 95.137, -68.4977
1775.000000, 95.175, -44.7007
1800.000000, 95.620, -18.6572
1825.000000, 96.869, 7.4540
1850.000000, 98.665, 28.1199
1875.000000, 100.079, 41.8641
1900.000000, 100.670, 53.3977
1925.000000, 100.694, 66.6507
1950.000000, 100.524, 82.4529
1975.000000, 100.393, 100.1560
2000.000000, 100.383, 118.7667
2030.000000, 100.493, 141.2782
2060.000000, 100.641, 163.6982
2090.000000, 100.790, -173.7949
2120.000000, 100.952, -151.1677
2140.000000, 101.068, -136.0304
2180.000000, 101.314, -105.5908
2200.000000, 101.445, -90.3274
2240.000000, 101.724, -59.8250
2270.000000, 101.947, -36.9752
2300.000000, 102.185, -14.1177
2330.000000, 102.431, 8.7467
2360.000000, 102.682, 31.5952
2400.000000, 103.019, 61.9845
2430.000000, 103.270, 84.6851
2470.000000, 103.600, 114.8346
2500.000000, 103.841, 137.3569
2540.000000, 104.147, 167.2776
2580.000000, 104.433, -162.8353
2620.000000, 104.694, -132.9564
2650.000000, 104.869, -110.5439
2690.000000, 105.083, -80.5414
2720.000000, 105.235, -57.8855
2760.000000, 105.431, -27.5215
2800.000000, 105.623, 2.9143
2850.000000, 105.889, 41.1326
2900.000000, 106.221, 79.4692
2950.000000, 106.595, 117.5083
3000.000000, 106.971, 155.0004
3040.000000, 107.244, -175.3054
3070.000000, 107.430, -153.0813
3110.000000, 107.664, -123.4910
3150.000000, 107.884, -94.0746
3200.000000, 108.102, -57.6953
3250.000000, 108.196, -21.6405
3300.000000, 108.158, 14.5364
3350.000000, 108.061, 51.2653
3400.000000, 107.977, 88.3035
3450.000000, 107.859, 125.1040
3500.000000, 107.612, 161.7046
3550.000000, 107.164, -161.2993
3600.000000, 106.530, -122.9404
3650.000000, 105.817, -82.4399
3700.000000, 105.221, -39.0662
3750.000000, 105.134, 6.4075
3820.000000, 105.873, 65.8242
3870.000000, 106.349, 103.8594
3950.000000, 106.384, 162.6770
4000.000000, 106.042, -159.5464
4060.000000, 105.551, -113.0737
4120.000000, 105.093, -69.3638
4180.000000, 104.555, -32.1726
4250.000000, 104.066, 7.1675
4310.000000, 103.845, 40.3906
4370.000000, 103.760, 73.2209
4440.000000, 103.771, 110.7278
4500.000000, 103.808, 141.9785
4550.000000, 103.807, 167.3635
4620.000000, 103.687, -157.8284
4680.000000, 103.435, -128.2056
4750.000000, 102.960, -93.2661
4820.000000, 102.332, -57.4238
4870.000000, 101.845, -31.0376
4940.000000, 101.248, 7.3301
5000.000000, 100.946, 41.4675
5080.000000, 100.991, 87.4277
5150.000000, 101.429, 126.2769
5220.000000, 102.052, 163.0063
5300.000000, 102.802, -157.3904
5380.000000, 103.488, -120.1018
5450.000000, 103.965, -88.7754
5520.000000, 104.243, -58.2739
5600.000000, 104.232, -24.1431
5700.000000, 103.749, 18.7722
5800.000000, 103.040, 63.5381
5900.000000, 102.389, 109.7959
6000.000000, 101.844, 156.5381
6080.000000, 101.464, -166.0132
6150.000000, 101.167, -133.1982
6220.000000, 100.906, -100.3762
6300.000000, 100.656, -63.0007
6400.000000, 100.403, -16.8210
6500.000000, 100.126, 28.6394
6600.000000, 99.735, 73.8301
6700.000000, 99.243, 119.3232
6800.000000, 98.771, 165.3235
6900.000000, 98.411, -148.4871
7000.000000, 98.163, -102.4517
7100.000000, 97.990, -56.7070
7200.000000, 97.867, -11.3408
7300.000000, 97.784, 33.6030
7400.000000, 97.747, 78.1367
7500.000000, 97.765, 122.1123
7620.000000, 97.885, 174.1353
7750.000000, 98.072, -130.8594
7880.000000, 98.051, -77.4863
8000.000000, 97.687, -29.1035
8120.000000, 96.969, 19.6426
8250.000000, 95.925, 74.4438
8380.000000, 94.944, 131.9712
8500.000000, 94.477, -174.6748
8620.000000, 94.438, -145.6792
8750.000000, 95.053, -136.8408
8850.000000, 95.627, -103.2729
9000.000000, 96.010, -56.7817
9120.000000, 95.862, -21.9409
9250.000000, 95.312, 15.6851
9380.000000, 94.507, 54.2222
9500.000000, 93.715, 90.8525
9620.000000, 93.038, 128.1460
9750.000000, 92.540, 169.2754
9880.000000, 92.341, -149.5269
10000.000000, 92.418, -112.2861
10150.000000, 92.683, -67.6665
10300.000000, 92.836, -24.8721
10440.000000, 92.700, 14.3374
10600.000000, 92.224, 58.9282
10750.000000, 91.534, 100.8311
10900.000000, 90.623, 143.8262
11060.000000, 89.782, -168.2656
11200.000000, 90.012, -126.4272
11380.000000, 91.387, -74.9731
11500.000000, 92.131, -39.9844
11720.000000, 92.295, 22.4854
11800.000000, 91.879, 44.5273
12060.000000, 88.257, 123.5845
12200.000000, 85.633, 176.6260
12410.000000, 86.608, -100.2373
12500.000000, 88.106, -69.1968
12650.000000, 90.030, -23.1768
12800.000000, 91.094, 18.8359
13150.000000, 91.778, 112.4961
13200.000000, 91.784, 125.6836
13400.000000, 91.635, 177.8076
13600.000000, 91.145, -130.8369
13800.000000, 90.322, -79.6812
14000.000000, 89.100, -28.3262
14300.000000, 86.125, 48.8818
14500.000000, 83.991, 103.8643
14750.000000, 83.002, 170.8232
15000.000000, 83.675, -131.7598
15250.000000, 83.617, -90.4028
15500.000000, 81.625, 168.1260
15750.000000, 77.909, -160.2271
16000.000000, 73.722, -94.0620
16250.000000, 73.079, -19.4600
16500.000000, 74.480, 52.7817
16750.000000, 75.787, 121.9058
17000.000000, 77.505, -171.1797
17250.000000, 78.796, -108.7773
17500.000000, 78.112, -48.4600
17750.000000, 74.670, 19.9497
18000.000000, 71.351, 103.4126
18250.000000, 73.346, -175.7476
18500.000000, 75.957, -105.1196
18750.000000, 77.635, -41.2036
19000.000000, 78.795, 22.7988
19250.000000, 79.336, 81.1108
19500.000000, 79.025, 139.3350
19750.000000, 78.155, -157.0063
20000.000000, 76.990, -88.4683
20300.000000, 75.127, -3.4771
20600.000000, 72.704, 77.5171
20900.000000, 69.678, 130.7402
21200.000000, 65.938, -150.0972
21400.000000, 62.780, -74.2168
21800.000000, 54.383, 107.6133
22000.000000, 49.331, -143.0361
22400.000000, 40.325, 41.8438
22700.000000, 36.598, -159.1553
23000.000000, 32.360, 17.5186
23300.000000, 26.585, -137.3633
23600.000000, 20.931, 87.7197
24000.000000, 18.169, 39.7520
