* Measurement data measured by REW V5.31.3
* Source: Headset (DS by VECLAN.COM), MICROPHONE (Master Volume), L, volume: 0.720. Timing signal peak level -19.1 dBFS, measurement signal peak level -13.0 dBFS
* Format: 2M Log Swept Sine, 1 sweep at -14.4 dBFS using an acoustic timing reference
* Dated: Nov 5, 2024 11:41:55 PM
* REW Settings:
*  C-weighting compensation: Off
*  Target level: 85.0 dB
* Note: ; Delay -0.5619 ms (-193 mm, -7.59 in) using estimated IR delay relative to Acoustic reference played from HEADPHONE R with no timing offset Clock adjustment: -471.6 ppm
* Measurement: Classic Ambient R4
* Smoothing: 1/24 octave
* Frequency Step: 1/48 octave
* Start Frequency: 1.000 Hz
*
* Freq(Hz), SPL(dB), Phase(degrees)
1.000000, 36.166, 159.4980
1.015000, 36.524, 157.4272
1.030000, 36.875, 155.4358
1.044000, 37.196, 153.6398
1.060000, 37.551, 151.6517
1.075000, 37.872, 149.8414
1.090000, 38.180, 148.0758
1.106000, 38.496, 146.2369
1.120000, 38.769, 144.6661
1.138000, 39.119, 142.7006
1.150000, 39.352, 141.4239
1.172000, 39.778, 139.1526
1.180000, 39.933, 138.3487
1.206000, 40.435, 135.8165
1.220000, 40.704, 134.5035
1.241000, 41.105, 132.5992
1.250000, 41.276, 131.8069
1.265000, 41.561, 130.5175
1.280000, 41.843, 129.2666
1.315000, 42.495, 126.4944
1.320000, 42.587, 126.1148
1.340000, 42.953, 124.6364
1.360000, 43.314, 123.2207
1.380000, 43.670, 121.8659
1.400000, 44.020, 120.5702
1.430000, 44.535, 118.7333
1.450000, 44.870, 117.5774
1.475000, 45.279, 116.2078
1.500000, 45.677, 114.9204
1.525000, 46.065, 113.7058
1.550000, 46.443, 112.5528
1.575000, 46.813, 111.4517
1.600000, 47.175, 110.3949
1.625000, 47.530, 109.3759
1.650000, 47.880, 108.3894
1.675000, 48.224, 107.4315
1.700000, 48.565, 106.4987
1.725000, 48.902, 105.5883
1.750000, 49.237, 104.6985
1.775000, 49.571, 103.8276
1.800000, 49.904, 102.9750
1.825000, 50.238, 102.1436
1.850000, 50.570, 101.3472
1.875000, 50.899, 100.6001
1.900000, 51.224, 99.8990
1.925000, 51.546, 99.2336
1.950000, 51.865, 98.5946
1.975000, 52.181, 97.9736
2.000000, 52.494, 97.3636
2.030000, 52.867, 96.6375
2.060000, 53.237, 95.9100
2.090000, 53.605, 95.1742
2.120000, 53.971, 94.4245
2.140000, 54.214, 93.9152
2.180000, 54.698, 92.8736
2.200000, 54.940, 92.3489
2.240000, 55.423, 91.3408
2.270000, 55.782, 90.6340
2.300000, 56.140, 89.9577
2.330000, 56.496, 89.2980
2.360000, 56.850, 88.6425
2.400000, 57.318, 87.7573
2.430000, 57.665, 87.0734
2.470000, 58.125, 86.1220
2.500000, 58.466, 85.3715
2.540000, 58.915, 84.3168
2.580000, 59.359, 83.2200
2.620000, 59.799, 82.1370
2.650000, 60.126, 81.3446
2.690000, 60.558, 80.3041
2.720000, 60.878, 79.5266
2.760000, 61.300, 78.4810
2.800000, 61.716, 77.4131
2.850000, 62.227, 76.0288
2.900000, 62.726, 74.5738
2.950000, 63.213, 73.0547
3.000000, 63.689, 71.5215
3.040000, 64.063, 70.3012
3.070000, 64.339, 69.3889
3.110000, 64.701, 68.1735
3.150000, 65.055, 66.9546
3.200000, 65.489, 65.4182
3.250000, 65.910, 63.8580
3.300000, 66.320, 62.2657
3.350000, 66.718, 60.6472
3.400000, 67.104, 59.0186
3.450000, 67.479, 57.3924
3.500000, 67.842, 55.7757
3.550000, 68.195, 54.1716
3.600000, 68.536, 52.5799
3.650000, 68.867, 50.9957
3.700000, 69.187, 49.4062
3.750000, 69.496, 47.8045
3.820000, 69.909, 45.5627
3.870000, 70.192, 43.9804
3.950000, 70.624, 41.5097
4.000000, 70.883, 40.0110
4.060000, 71.181, 38.2447
4.120000, 71.465, 36.4846
4.180000, 71.734, 34.7350
4.250000, 72.033, 32.7364
4.310000, 72.278, 31.0831
4.370000, 72.513, 29.4991
4.440000, 72.774, 27.7242
4.500000, 72.986, 26.2367
4.550000, 73.155, 25.0206
4.620000, 73.381, 23.3701
4.680000, 73.567, 22.0195
4.750000, 73.779, 20.5339
4.820000, 73.983, 19.1373
4.870000, 74.123, 18.1808
4.940000, 74.312, 16.8942
5.000000, 74.471, 15.8425
5.080000, 74.680, 14.5208
5.150000, 74.863, 13.4459
5.220000, 75.045, 12.4454
5.300000, 75.251, 11.3774
5.380000, 75.456, 10.3700
5.450000, 75.639, 9.5258
5.520000, 75.826, 8.7155
5.600000, 76.043, 7.8406
5.700000, 76.319, 6.8043
5.800000, 76.599, 5.7830
5.900000, 76.884, 4.7478
6.000000, 77.175, 3.7158
6.080000, 77.409, 2.8871
6.150000, 77.614, 2.1461
6.220000, 77.817, 1.3813
6.300000, 78.047, 0.4794
6.400000, 78.332, -0.6770
6.500000, 78.611, -1.8591
6.600000, 78.881, -3.0688
6.700000, 79.141, -4.3116
6.800000, 79.391, -5.5757
6.900000, 79.630, -6.8379
7.000000, 79.857, -8.0896
7.100000, 80.072, -9.3395
7.200000, 80.275, -10.5747
7.300000, 80.469, -11.7723
7.400000, 80.653, -12.9277
7.500000, 80.828, -14.0490
7.620000, 81.027, -15.3379
7.750000, 81.235, -16.6464
7.880000, 81.434, -17.8711
8.000000, 81.614, -18.9353
8.120000, 81.792, -19.9362
8.250000, 81.983, -20.9537
8.380000, 82.174, -21.9207
8.500000, 82.352, -22.7789
8.620000, 82.530, -23.6064
8.750000, 82.723, -24.4816
8.850000, 82.871, -25.1470
9.000000, 83.092, -26.1326
9.120000, 83.268, -26.9125
9.250000, 83.455, -27.7524
9.380000, 83.640, -28.5859
9.500000, 83.807, -29.3457
9.620000, 83.972, -30.0952
9.750000, 84.147, -30.8953
9.880000, 84.310, -31.6801
10.000000, 84.449, -32.3898
10.150000, 84.610, -33.2596
10.300000, 84.761, -34.1129
10.440000, 84.897, -34.8964
10.600000, 85.049, -35.7825
10.750000, 85.192, -36.6094
10.900000, 85.334, -37.4330
11.060000, 85.482, -38.3098
11.200000, 85.607, -39.0747
11.380000, 85.761, -40.0457
11.500000, 85.859, -40.6824
11.720000, 86.031, -41.8130
11.800000, 86.093, -42.2081
12.060000, 86.289, -43.4260
12.200000, 86.394, -44.0334
12.410000, 86.552, -44.8853
12.500000, 86.621, -45.2308
12.650000, 86.737, -45.7840
12.800000, 86.855, -46.3188
13.150000, 87.141, -47.5401
13.200000, 87.183, -47.7162
13.400000, 87.353, -48.4319
13.600000, 87.524, -49.1699
13.800000, 87.692, -49.9308
14.000000, 87.856, -50.7052
14.300000, 88.089, -51.8690
14.500000, 88.235, -52.6281
14.750000, 88.412, -53.5430
15.000000, 88.585, -54.4144
15.250000, 88.760, -55.2455
15.500000, 88.935, -56.0463
15.750000, 89.110, -56.8269
16.000000, 89.283, -57.5958
16.250000, 89.453, -58.3566
16.500000, 89.621, -59.1106
16.750000, 89.788, -59.8592
17.000000, 89.954, -60.6051
17.250000, 90.118, -61.3523
17.500000, 90.279, -62.1037
17.750000, 90.435, -62.8580
18.000000, 90.585, -63.6078
18.250000, 90.729, -64.3409
18.500000, 90.866, -65.0421
18.750000, 91.000, -65.7003
19.000000, 91.134, -66.3115
19.250000, 91.272, -66.8829
19.500000, 91.415, -67.4317
19.750000, 91.563, -67.9794
20.000000, 91.716, -68.5472
20.299999, 91.900, -69.2726
20.600000, 92.080, -70.0472
20.900000, 92.253, -70.8541
21.200001, 92.416, -71.6659
21.400000, 92.520, -72.1975
21.799999, 92.719, -73.2205
22.000000, 92.818, -73.7115
22.400000, 93.013, -74.6648
22.700001, 93.159, -75.3669
23.000000, 93.304, -76.0652
23.299999, 93.447, -76.7607
23.600000, 93.587, -77.4525
24.000000, 93.771, -78.3677
24.299999, 93.907, -79.0486
24.700001, 94.083, -79.9441
25.000000, 94.210, -80.5977
25.400000, 94.377, -81.4302
25.799999, 94.543, -82.2173
26.200001, 94.714, -82.9871
26.500000, 94.846, -83.5812
26.900000, 95.021, -84.4222
27.200001, 95.147, -85.0867
27.600000, 95.304, -85.9837
28.000000, 95.450, -86.8491
28.500000, 95.630, -87.8689
29.000000, 95.813, -88.8895
29.500000, 95.987, -89.9825
30.000000, 96.134, -91.0897
30.400000, 96.231, -91.8810
30.700001, 96.299, -92.3786
31.100000, 96.395, -92.9218
31.500000, 96.506, -93.3887
32.000000, 96.662, -93.9753
32.500000, 96.820, -94.5876
33.000000, 96.974, -95.1342
33.500000, 97.141, -95.5499
34.000000, 97.344, -95.9187
34.500000, 97.584, -96.4195
35.000000, 97.838, -97.1730
35.500000, 98.079, -98.1613
36.000000, 98.296, -99.2786
36.500000, 98.489, -100.4186
37.000000, 98.666, -101.5201
37.500000, 98.837, -102.5659
38.200001, 99.080, -103.9702
38.700001, 99.263, -104.9945
39.500000, 99.565, -106.8167
40.000000, 99.745, -108.1039
40.599998, 99.942, -109.7644
41.200001, 100.111, -111.4854
41.799999, 100.253, -113.1951
42.500000, 100.390, -115.0705
43.099998, 100.500, -116.5191
43.700001, 100.620, -117.8714
44.400002, 100.775, -119.4824
45.000000, 100.902, -120.9498
45.500000, 100.995, -122.1927
46.200001, 101.109, -123.8815
46.799999, 101.201, -125.2654
47.500000, 101.304, -126.8326
48.200001, 101.403, -128.3788
48.700001, 101.468, -129.4794
49.400002, 101.547, -130.9856
50.000000, 101.609, -132.1969
50.799999, 101.703, -133.7268
51.500000, 101.800, -135.1310
52.200001, 101.890, -136.6592
53.000000, 101.974, -138.4506
53.799999, 102.048, -140.2085
54.500000, 102.113, -141.7413
55.200001, 102.176, -143.2866
56.000000, 102.246, -145.0584
57.000000, 102.334, -147.3057
58.000000, 102.412, -149.6605
59.000000, 102.462, -152.1138
60.000000, 102.473, -154.6528
60.799999, 102.436, -156.6997
61.500000, 102.369, -158.3901
62.200001, 102.278, -159.9147
63.000000, 102.163, -161.4371
64.000000, 102.021, -163.0464
65.000000, 101.896, -164.4373
66.000000, 101.784, -165.6257
67.000000, 101.700, -166.5820
68.000000, 101.656, -167.4065
69.000000, 101.652, -168.1893
70.000000, 101.693, -169.0829
71.000000, 101.759, -170.2636
72.000000, 101.826, -171.7948
73.000000, 101.876, -173.6561
74.000000, 101.891, -175.8086
75.000000, 101.854, -178.1486
76.199997, 101.733, 179.0619
77.500000, 101.525, 176.3895
78.800003, 101.274, 174.2791
80.000000, 101.042, 172.8572
81.199997, 100.840, 171.7867
82.500000, 100.667, 170.8643
83.800003, 100.551, 169.9279
85.000000, 100.470, 168.9888
86.199997, 100.424, 168.0388
87.500000, 100.406, 166.8274
88.500000, 100.393, 165.7795
90.000000, 100.389, 164.0853
91.199997, 100.382, 162.2637
92.500000, 100.306, 159.9756
93.800003, 100.202, 157.6240
95.000000, 100.093, 155.1368
96.199997, 99.939, 152.3477
97.500000, 99.701, 149.1606
98.800003, 99.371, 145.9355
100.000000, 98.963, 143.0615
101.500000, 98.298, 139.7900
103.000000, 97.449, 137.1210
104.400002, 96.510, 135.6785
106.000000, 95.358, 135.7960
107.500000, 94.293, 138.1001
109.000000, 93.396, 142.6065
110.599998, 92.721, 148.6646
112.000000, 92.368, 154.0146
113.800003, 92.192, 159.7371
115.000000, 92.205, 162.6409
117.199997, 92.473, 166.9053
118.000000, 92.637, 168.1065
120.599998, 92.855, 171.9439
122.000000, 92.974, 176.2415
124.099998, 93.364, -178.8638
125.000000, 93.522, -177.5639
126.500000, 93.769, -175.9557
128.000000, 94.052, -174.8824
131.500000, 94.821, -174.0397
132.000000, 94.925, -174.0256
134.000000, 95.302, -174.0514
136.000000, 95.637, -174.2308
138.000000, 95.932, -174.9114
140.000000, 96.143, -175.8380
143.000000, 96.414, -177.1386
145.000000, 96.591, -177.9628
147.500000, 96.830, -179.1241
150.000000, 97.056, 179.1442
152.500000, 97.202, 177.2189
155.000000, 97.294, 175.3350
157.500000, 97.387, 173.2042
160.000000, 97.504, 170.8279
162.500000, 97.576, 168.4521
165.000000, 97.430, 166.9203
167.500000, 97.204, 165.9510
170.000000, 96.994, 164.6328
172.500000, 96.839, 163.0627
175.000000, 96.667, 161.7430
177.500000, 96.453, 160.7905
180.000000, 96.223, 160.0371
182.500000, 96.026, 159.3304
185.000000, 95.839, 158.4833
187.500000, 95.641, 157.6528
190.000000, 95.435, 157.0059
192.500000, 95.226, 156.5803
195.000000, 95.014, 156.2550
197.500000, 94.801, 155.9982
200.000000, 94.595, 155.8214
203.000000, 94.351, 155.7263
206.000000, 94.112, 155.7953
209.000000, 93.876, 155.9273
212.000000, 93.638, 156.1511
214.000000, 93.484, 156.3290
218.000000, 93.200, 156.9066
220.000000, 93.075, 157.2630
224.000000, 92.837, 157.8540
227.000000, 92.655, 158.1323
230.000000, 92.466, 158.3866
233.000000, 92.268, 158.6867
236.000000, 92.067, 159.0168
240.000000, 91.800, 159.5801
243.000000, 91.586, 160.4000
247.000000, 91.325, 161.7617
250.000000, 91.159, 162.6500
254.000000, 90.949, 163.6826
258.000000, 90.741, 164.7894
262.000000, 90.535, 165.8722
265.000000, 90.371, 166.6210
269.000000, 90.166, 167.7020
272.000000, 90.019, 168.6099
276.000000, 89.808, 170.0117
280.000000, 89.602, 171.5102
285.000000, 89.354, 173.4899
290.000000, 89.119, 175.6714
295.000000, 88.896, 178.0596
300.000000, 88.686, -179.2571
304.000000, 88.534, -176.8758
307.000000, 88.443, -174.8863
311.000000, 88.379, -171.9039
315.000000, 88.425, -168.7035
320.000000, 88.665, -165.1033
325.000000, 89.010, -162.9167
330.000000, 89.283, -162.2196
335.000000, 89.401, -161.9629
340.000000, 89.406, -161.3547
345.000000, 89.374, -160.2025
350.000000, 89.370, -158.7034
355.000000, 89.411, -157.1668
360.000000, 89.491, -155.6948
365.000000, 89.606, -154.3656
370.000000, 89.727, -153.5076
375.000000, 89.804, -153.0004
382.000000, 89.824, -152.2192
387.000000, 89.810, -151.4284
395.000000, 89.786, -149.9072
400.000000, 89.784, -148.8734
406.000000, 89.796, -147.6389
412.000000, 89.811, -146.4438
418.000000, 89.826, -145.2819
425.000000, 89.846, -143.9520
431.000000, 89.862, -142.7994
437.000000, 89.872, -141.6633
444.000000, 89.878, -140.3075
450.000000, 89.886, -139.0503
455.000000, 89.903, -137.9517
462.000000, 89.947, -136.4485
468.000000, 90.001, -135.3270
475.000000, 90.055, -134.2003
482.000000, 90.091, -133.1824
487.000000, 90.109, -132.4557
494.000000, 90.120, -131.4160
500.000000, 90.117, -130.4722
508.000000, 90.105, -129.1330
515.000000, 90.097, -127.9253
522.000000, 90.087, -126.6869
530.000000, 90.077, -125.2261
538.000000, 90.071, -123.6733
545.000000, 90.060, -122.2908
552.000000, 90.050, -120.9174
560.000000, 90.044, -119.2537
570.000000, 90.038, -117.0399
580.000000, 90.050, -114.7099
590.000000, 90.099, -112.3456
600.000000, 90.165, -110.1279
608.000000, 90.208, -108.4868
615.000000, 90.232, -107.0215
622.000000, 90.254, -105.5134
630.000000, 90.287, -103.7596
640.000000, 90.348, -101.4764
650.000000, 90.425, -99.1516
660.000000, 90.518, -96.8082
670.000000, 90.629, -94.5275
680.000000, 90.753, -92.3630
690.000000, 90.877, -90.1870
700.000000, 91.007, -88.0929
710.000000, 91.152, -86.0875
720.000000, 91.310, -84.0866
730.000000, 91.478, -82.1187
740.000000, 91.652, -80.2465
750.000000, 91.829, -78.5108
762.000000, 92.030, -76.5408
775.000000, 92.237, -74.5331
788.000000, 92.460, -72.6232
800.000000, 92.666, -70.9803
812.000000, 92.861, -69.4677
825.000000, 93.069, -67.9331
838.000000, 93.265, -66.4847
850.000000, 93.435, -65.2190
862.000000, 93.598, -64.0031
875.000000, 93.758, -62.7617
885.000000, 93.871, -61.8354
900.000000, 94.017, -60.4504
912.000000, 94.113, -59.3508
925.000000, 94.211, -58.1407
938.000000, 94.305, -56.8698
950.000000, 94.389, -55.6864
962.000000, 94.464, -54.5148
975.000000, 94.532, -53.2799
988.000000, 94.586, -52.0660
1000.000000, 94.630, -50.9183
1015.000000, 94.680, -49.4423
1030.000000, 94.724, -47.9180
1044.000000, 94.758, -46.4539
1060.000000, 94.793, -44.7390
1075.000000, 94.822, -43.1160
1090.000000, 94.851, -41.4720
1106.000000, 94.886, -39.6785
1120.000000, 94.920, -38.0997
1138.000000, 94.962, -36.0729
1150.000000, 94.989, -34.7192
1172.000000, 95.026, -32.3516
1180.000000, 95.026, -31.5470
1206.000000, 94.942, -28.7935
1220.000000, 94.865, -26.8977
1241.000000, 94.795, -23.4491
1250.000000, 94.797, -21.9016
1265.000000, 94.830, -19.3954
1280.000000, 94.880, -17.0043
1315.000000, 94.998, -11.7048
1320.000000, 95.013, -10.9701
1340.000000, 95.064, -8.0385
1360.000000, 95.087, -5.0726
1380.000000, 95.108, -2.0638
1400.000000, 95.148, 0.9609
1430.000000, 95.220, 5.4556
1450.000000, 95.266, 8.4149
1475.000000, 95.311, 12.1057
1500.000000, 95.338, 15.8687
1525.000000, 95.353, 19.7935
1550.000000, 95.369, 23.8485
1575.000000, 95.386, 27.9561
1600.000000, 95.396, 32.0671
1625.000000, 95.389, 36.2554
1650.000000, 95.361, 40.6473
1675.000000, 95.308, 45.2755
1700.000000, 95.227, 50.2997
1725.000000, 95.135, 55.9839
1750.000000, 95.059, 62.7117
1775.000000, 95.094, 71.1357
1800.000000, 95.538, 81.6386
1825.000000, 96.762, 91.9656
1850.000000, 98.499, 96.8096
1875.000000, 99.830, 94.8835
1900.000000, 100.330, 90.9703
1925.000000, 100.281, 88.8325
1950.000000, 100.049, 89.2109
1975.000000, 99.863, 91.5645
2000.000000, 99.819, 94.8443
2030.000000, 99.919, 98.7708
2060.000000, 100.063, 102.3280
2090.000000, 100.181, 105.7999
2120.000000, 100.278, 109.3889
2140.000000, 100.339, 111.8653
2180.000000, 100.471, 117.0322
2200.000000, 100.547, 119.6763
2240.000000, 100.720, 124.9886
2270.000000, 100.874, 128.9724
2300.000000, 101.044, 132.9189
2330.000000, 101.221, 136.7839
2360.000000, 101.402, 140.5812
2400.000000, 101.646, 145.5670
2430.000000, 101.828, 149.2327
2470.000000, 102.065, 153.9684
2500.000000, 102.235, 157.3970
2540.000000, 102.449, 161.8491
2580.000000, 102.642, 166.2004
2620.000000, 102.810, 170.4396
2650.000000, 102.915, 173.5380
2690.000000, 103.024, 177.6443
2720.000000, 103.090, -179.1864
2760.000000, 103.163, -174.7937
2800.000000, 103.213, -170.2964
2850.000000, 103.258, -164.5752
2900.000000, 103.340, -158.5908
2950.000000, 103.483, -152.5143
3000.000000, 103.659, -146.8893
3040.000000, 103.776, -142.8418
3070.000000, 103.832, -139.9358
3110.000000, 103.878, -136.0680
3150.000000, 103.923, -132.2476
3200.000000, 103.975, -127.7759
3250.000000, 103.958, -123.7881
3300.000000, 103.817, -120.1027
3350.000000, 103.550, -116.2970
3400.000000, 103.200, -112.2578
3450.000000, 102.745, -108.2192
3500.000000, 102.103, -103.9933
3550.000000, 101.215, -98.7606
3600.000000, 100.118, -91.3502
3650.000000, 98.961, -80.6861
3700.000000, 98.066, -65.1933
3750.000000, 98.227, -46.2031
3820.000000, 99.865, -29.7394
3870.000000, 100.706, -25.4703
3950.000000, 100.845, -21.1200
4000.000000, 100.418, -16.7069
4060.000000, 99.782, -8.7468
4120.000000, 99.255, 0.9437
4180.000000, 98.852, 11.4217
4250.000000, 98.513, 24.4159
4310.000000, 98.354, 35.7720
4370.000000, 98.306, 46.7842
4440.000000, 98.334, 58.8890
4500.000000, 98.373, 68.5221
4550.000000, 98.378, 76.0239
4620.000000, 98.288, 85.9884
4680.000000, 98.081, 94.3903
4750.000000, 97.680, 104.4880
4820.000000, 97.144, 115.4889
4870.000000, 96.730, 124.2990
4940.000000, 96.197, 138.1147
5000.000000, 95.868, 151.0885
5080.000000, 95.735, 169.2155
5150.000000, 95.939, -175.4126
5220.000000, 96.311, -161.4639
5300.000000, 96.789, -147.1523
5380.000000, 97.249, -134.5281
5450.000000, 97.560, -124.8360
5520.000000, 97.699, -116.2271
5600.000000, 97.557, -106.9197
5700.000000, 96.949, -93.7209
5800.000000, 96.176, -77.3038
5900.000000, 95.560, -58.8781
6000.000000, 95.105, -39.7558
6080.000000, 94.821, -24.0507
6150.000000, 94.638, -9.9753
6220.000000, 94.537, 4.3746
6300.000000, 94.553, 20.8769
6400.000000, 94.768, 40.8629
6500.000000, 95.095, 59.3936
6600.000000, 95.403, 76.4454
6700.000000, 95.605, 92.4911
6800.000000, 95.678, 108.2192
6900.000000, 95.648, 123.9766
7000.000000, 95.534, 139.9328
7100.000000, 95.337, 156.3214
7200.000000, 95.096, 173.4160
7300.000000, 94.863, -168.7531
7400.000000, 94.679, -150.3896
7500.000000, 94.569, -131.7380
7620.000000, 94.587, -109.2679
7750.000000, 94.807, -85.6522
7880.000000, 94.995, -63.6940
8000.000000, 94.989, -44.5001
8120.000000, 94.765, -25.5507
8250.000000, 94.320, -4.3964
8380.000000, 93.790, 18.2494
8500.000000, 93.361, 40.3346
8620.000000, 93.053, 62.8145
8750.000000, 92.788, 86.7657
8850.000000, 92.544, 104.7493
9000.000000, 92.110, 131.6655
9120.000000, 91.773, 153.0933
9250.000000, 91.371, 175.6281
9380.000000, 90.757, -162.4822
9500.000000, 89.907, -141.8558
9620.000000, 88.791, -119.5818
9750.000000, 87.343, -91.9329
9880.000000, 85.984, -57.9292
10000.000000, 85.519, -21.0531
10150.000000, 86.427, 22.9667
10300.000000, 87.979, 58.5067
10440.000000, 89.303, 86.9043
10600.000000, 90.657, 117.1986
10750.000000, 91.965, 144.0593
10900.000000, 93.307, 168.1317
11060.000000, 94.460, -170.2053
11200.000000, 94.905, -153.4814
11380.000000, 94.606, -131.4121
11500.000000, 94.082, -114.8354
11720.000000, 93.110, -81.1392
11800.000000, 92.815, -68.6559
12060.000000, 91.661, -29.7568
12200.000000, 90.629, -9.0894
12410.000000, 88.338, 25.0637
12500.000000, 87.128, 42.2719
12650.000000, 85.100, 76.6230
12800.000000, 83.705, 117.5956
13150.000000, 84.444, -151.1892
13200.000000, 84.810, -140.1215
13400.000000, 86.324, -101.2152
13600.000000, 87.483, -68.2812
13800.000000, 88.223, -38.2656
14000.000000, 88.579, -10.4121
14300.000000, 88.219, 29.3015
14500.000000, 87.580, 57.0918
14750.000000, 86.984, 92.7124
15000.000000, 86.911, 124.9004
15250.000000, 87.013, 150.1575
15500.000000, 86.781, 168.6880
15750.000000, 85.851, -177.5964
16000.000000, 83.379, -161.7251
16250.000000, 79.716, -130.2368
16500.000000, 77.686, -86.2517
16750.000000, 77.378, -44.6086
17000.000000, 77.326, -4.2136
17250.000000, 77.550, 33.2224
17500.000000, 76.986, 63.5198
17750.000000, 74.165, 94.8601
18000.000000, 69.422, 155.2344
18250.000000, 67.435, -96.1619
18500.000000, 69.324, -33.1208
18750.000000, 70.849, 16.5361
19000.000000, 71.512, 64.9341
19250.000000, 71.636, 115.2849
19500.000000, 71.649, 168.1113
19750.000000, 71.814, -138.8396
20000.000000, 71.817, -88.7754
20300.000000, 71.054, -33.0229
20600.000000, 69.021, 19.9102
20900.000000, 65.391, 73.8428
21200.000000, 60.185, 132.3726
21400.000000, 55.915, 176.2563
21800.000000, 46.069, -75.1538
22000.000000, 41.084, -20.1086
22400.000000, 32.490, 75.1445
22700.000000, 27.684, 139.4929
23000.000000, 23.817, -170.7788
23300.000000, 20.338, -146.6130
23600.000000, 18.127, -119.2170
24000.000000, 17.112, -16.6885
