* Measurement data measured by REW V5.31.3
* Source: Headset (DS by VECLAN.COM), MICROPHONE (Master Volume), L, volume: 0.720. Timing signal peak level -13.0 dBFS, measurement signal peak level -8.3 dBFS
* Format: 2M Log Swept Sine, 1 sweep at -14.4 dBFS using an acoustic timing reference
* Dated: Nov 5, 2024 11:31:39 PM
* REW Settings:
*  C-weighting compensation: Off
*  Target level: 85.0 dB
* Note: ; Delay -2.9859 ms (-1.024 m, -(3 ft 4.3 in)) using estimated IR delay relative to Acoustic reference played from HEADPHONE R with no timing offset Clock adjustment: -1,306.3 ppm
* Measurement: Electronic Passive R4
* Smoothing: 1/24 octave
* Frequency Step: 1/48 octave
* Start Frequency: 1.000 Hz
*
* Freq(Hz), SPL(dB), Phase(degrees)
1.000000, 48.457, 177.2401
1.015000, 48.464, 176.9076
1.030000, 48.472, 176.5478
1.044000, 48.481, 176.1858
1.060000, 48.494, 175.7397
1.075000, 48.508, 175.2885
1.090000, 48.524, 174.8048
1.106000, 48.543, 174.2581
1.120000, 48.560, 173.7640
1.138000, 48.582, 173.1138
1.150000, 48.596, 172.6708
1.172000, 48.625, 171.8366
1.180000, 48.635, 171.5255
1.206000, 48.672, 170.4829
1.220000, 48.693, 169.8998
1.241000, 48.726, 168.9942
1.250000, 48.742, 168.5940
1.265000, 48.769, 167.9101
1.280000, 48.798, 167.2043
1.315000, 48.874, 165.4668
1.320000, 48.886, 165.2079
1.340000, 48.937, 164.1442
1.360000, 48.993, 163.0351
1.380000, 49.055, 161.8795
1.400000, 49.123, 160.6770
1.430000, 49.237, 158.7850
1.450000, 49.322, 157.4629
1.475000, 49.439, 155.7233
1.500000, 49.565, 153.9064
1.525000, 49.700, 152.0607
1.550000, 49.844, 150.1960
1.575000, 49.996, 148.3137
1.600000, 50.157, 146.4142
1.625000, 50.325, 144.4978
1.650000, 50.501, 142.5638
1.675000, 50.686, 140.6116
1.700000, 50.877, 138.6404
1.725000, 51.076, 136.6492
1.750000, 51.282, 134.6373
1.775000, 51.495, 132.6039
1.800000, 51.715, 130.5490
1.825000, 51.941, 128.4769
1.850000, 52.177, 126.4083
1.875000, 52.425, 124.3722
1.900000, 52.683, 122.3805
1.925000, 52.952, 120.4352
1.950000, 53.229, 118.5356
1.975000, 53.514, 116.6802
2.000000, 53.805, 114.8664
2.030000, 54.159, 112.7404
2.060000, 54.518, 110.6639
2.090000, 54.879, 108.6306
2.120000, 55.239, 106.6339
2.140000, 55.478, 105.3202
2.180000, 55.949, 102.7289
2.200000, 56.182, 101.4533
2.240000, 56.648, 98.9719
2.270000, 57.001, 97.1862
2.300000, 57.357, 95.4641
2.330000, 57.713, 93.8012
2.360000, 58.070, 92.1919
2.400000, 58.545, 90.1198
2.430000, 58.899, 88.6134
2.470000, 59.365, 86.6579
2.500000, 59.709, 85.2240
2.540000, 60.159, 83.3474
2.580000, 60.598, 81.5110
2.620000, 61.029, 79.7310
2.650000, 61.348, 78.4376
2.690000, 61.768, 76.7664
2.720000, 62.078, 75.5498
2.760000, 62.487, 73.9718
2.800000, 62.888, 72.4380
2.850000, 63.379, 70.5727
2.900000, 63.859, 68.7539
2.950000, 64.327, 66.9753
3.000000, 64.782, 65.2447
3.040000, 65.137, 63.8979
3.070000, 65.399, 62.9092
3.110000, 65.741, 61.6183
3.150000, 66.078, 60.3565
3.200000, 66.489, 58.8161
3.250000, 66.891, 57.3115
3.300000, 67.284, 55.8377
3.350000, 67.667, 54.3932
3.400000, 68.040, 52.9796
3.450000, 68.403, 51.5978
3.500000, 68.757, 50.2474
3.550000, 69.102, 48.9271
3.600000, 69.441, 47.6351
3.650000, 69.772, 46.3690
3.700000, 70.096, 45.1258
3.750000, 70.412, 43.9041
3.820000, 70.842, 42.2308
3.870000, 71.140, 41.0623
3.950000, 71.604, 39.2386
4.000000, 71.886, 38.1260
4.060000, 72.218, 36.8156
4.120000, 72.541, 35.5291
4.180000, 72.856, 34.2661
4.250000, 73.213, 32.8229
4.310000, 73.511, 31.6117
4.370000, 73.802, 30.4233
4.440000, 74.135, 29.0626
4.500000, 74.412, 27.9158
4.550000, 74.638, 26.9736
4.620000, 74.947, 25.6759
4.680000, 75.205, 24.5834
4.750000, 75.500, 23.3311
4.820000, 75.787, 22.0994
4.870000, 75.988, 21.2305
4.940000, 76.262, 20.0300
5.000000, 76.492, 19.0171
5.080000, 76.791, 17.6902
5.150000, 77.045, 16.5498
5.220000, 77.293, 15.4246
5.300000, 77.569, 14.1567
5.380000, 77.836, 12.9116
5.450000, 78.064, 11.8428
5.520000, 78.287, 10.7924
5.600000, 78.534, 9.6090
5.700000, 78.833, 8.1562
5.800000, 79.122, 6.7394
5.900000, 79.401, 5.3608
6.000000, 79.670, 4.0125
6.080000, 79.879, 2.9559
6.150000, 80.058, 2.0499
6.220000, 80.232, 1.1625
6.300000, 80.427, 0.1688
6.400000, 80.664, -1.0469
6.500000, 80.894, -2.2318
6.600000, 81.119, -3.3842
6.700000, 81.337, -4.5064
6.800000, 81.550, -5.6019
6.900000, 81.757, -6.6714
7.000000, 81.961, -7.7157
7.100000, 82.159, -8.7371
7.200000, 82.354, -9.7375
7.300000, 82.544, -10.7183
7.400000, 82.731, -11.6814
7.500000, 82.913, -12.6280
7.620000, 83.127, -13.7422
7.750000, 83.352, -14.9241
7.880000, 83.570, -16.0826
8.000000, 83.765, -17.1278
8.120000, 83.955, -18.1486
8.250000, 84.154, -19.2293
8.380000, 84.347, -20.2778
8.500000, 84.519, -21.2139
8.620000, 84.686, -22.1214
8.750000, 84.863, -23.0684
8.850000, 84.996, -23.7688
9.000000, 85.192, -24.7767
9.120000, 85.346, -25.5475
9.250000, 85.512, -26.3462
9.380000, 85.676, -27.1108
9.500000, 85.828, -27.7926
9.620000, 85.981, -28.4536
9.750000, 86.145, -29.1499
9.880000, 86.303, -29.8352
10.000000, 86.440, -30.4620
10.150000, 86.600, -31.2411
10.300000, 86.753, -32.0253
10.440000, 86.890, -32.7644
10.600000, 87.043, -33.6173
10.750000, 87.185, -34.4263
10.900000, 87.324, -35.2392
11.060000, 87.466, -36.1016
11.200000, 87.584, -36.8486
11.380000, 87.728, -37.7814
11.500000, 87.818, -38.3809
11.720000, 87.978, -39.4200
11.800000, 88.035, -39.7744
12.060000, 88.220, -40.8384
12.200000, 88.321, -41.3541
12.410000, 88.478, -42.0632
12.500000, 88.548, -42.3481
12.650000, 88.666, -42.8023
12.800000, 88.787, -43.2428
13.150000, 89.085, -44.2695
13.200000, 89.129, -44.4211
13.400000, 89.308, -45.0463
13.600000, 89.487, -45.7052
13.800000, 89.663, -46.3962
14.000000, 89.832, -47.1058
14.300000, 90.071, -48.1720
14.500000, 90.220, -48.8574
14.750000, 90.399, -49.6620
15.000000, 90.575, -50.3990
15.250000, 90.756, -51.0750
15.500000, 90.943, -51.7139
15.750000, 91.135, -52.3444
16.000000, 91.329, -52.9934
16.250000, 91.521, -53.6739
16.500000, 91.707, -54.3824
16.750000, 91.885, -55.1011
17.000000, 92.054, -55.8029
17.250000, 92.216, -56.4637
17.500000, 92.375, -57.0679
17.750000, 92.533, -57.6152
18.000000, 92.694, -58.1201
18.250000, 92.862, -58.6058
18.500000, 93.034, -59.0980
18.750000, 93.209, -59.6144
19.000000, 93.384, -60.1623
19.250000, 93.557, -60.7362
19.500000, 93.724, -61.3226
19.750000, 93.886, -61.9064
20.000000, 94.044, -62.4755
20.299999, 94.230, -63.1343
20.600000, 94.416, -63.7742
20.900000, 94.602, -64.4114
21.200001, 94.787, -65.0602
21.400000, 94.908, -65.5012
21.799999, 95.143, -66.3939
22.000000, 95.258, -66.8375
22.400000, 95.481, -67.7028
22.700001, 95.648, -68.3319
23.000000, 95.816, -68.9561
23.299999, 95.986, -69.5923
23.600000, 96.155, -70.2538
24.000000, 96.375, -71.1771
24.299999, 96.533, -71.8854
24.700001, 96.735, -72.8168
25.000000, 96.882, -73.4897
25.400000, 97.077, -74.3534
25.799999, 97.274, -75.2073
26.200001, 97.472, -76.0862
26.500000, 97.617, -76.7693
26.900000, 97.804, -77.6979
27.200001, 97.938, -78.3904
27.600000, 98.110, -79.2908
28.000000, 98.280, -80.1690
28.500000, 98.488, -81.2697
29.000000, 98.686, -82.3933
29.500000, 98.866, -83.4973
30.000000, 99.032, -84.5208
30.400000, 99.162, -85.2828
30.700001, 99.261, -85.8451
31.100000, 99.390, -86.6096
31.500000, 99.509, -87.3862
32.000000, 99.635, -88.2861
32.500000, 99.750, -88.9761
33.000000, 99.883, -89.4268
33.500000, 100.060, -89.7896
34.000000, 100.280, -90.2825
34.500000, 100.518, -91.0253
35.000000, 100.748, -91.9936
35.500000, 100.959, -93.0988
36.000000, 101.152, -94.2656
36.500000, 101.327, -95.4430
37.000000, 101.488, -96.5869
37.500000, 101.642, -97.6672
38.200001, 101.863, -99.1014
38.700001, 102.028, -100.1479
39.500000, 102.291, -101.9911
40.000000, 102.440, -103.2516
40.599998, 102.595, -104.8210
41.200001, 102.722, -106.3834
41.799999, 102.825, -107.8762
42.500000, 102.928, -109.4869
43.099998, 103.012, -110.7704
43.700001, 103.095, -112.0042
44.400002, 103.188, -113.4138
45.000000, 103.262, -114.5896
45.500000, 103.321, -115.5344
46.200001, 103.404, -116.8101
46.799999, 103.477, -117.8936
47.500000, 103.556, -119.1740
48.200001, 103.620, -120.4128
48.700001, 103.659, -121.2144
49.400002, 103.720, -122.2119
50.000000, 103.786, -123.0229
50.799999, 103.882, -124.1383
51.500000, 103.966, -125.1255
52.200001, 104.055, -126.1096
53.000000, 104.159, -127.2750
53.799999, 104.259, -128.4594
54.500000, 104.350, -129.4844
55.200001, 104.448, -130.5471
56.000000, 104.562, -131.8538
57.000000, 104.698, -133.6324
58.000000, 104.815, -135.5565
59.000000, 104.912, -137.5757
60.000000, 104.979, -139.7805
60.799999, 104.986, -141.5883
61.500000, 104.962, -143.0394
62.200001, 104.929, -144.3403
63.000000, 104.888, -145.6904
64.000000, 104.839, -147.2002
65.000000, 104.803, -148.5635
66.000000, 104.782, -149.8571
67.000000, 104.776, -151.1133
68.000000, 104.788, -152.3923
69.000000, 104.818, -153.7847
70.000000, 104.858, -155.3744
71.000000, 104.894, -157.2048
72.000000, 104.914, -159.2737
73.000000, 104.909, -161.5651
74.000000, 104.864, -164.0353
75.000000, 104.768, -166.5678
76.199997, 104.588, -169.4954
77.500000, 104.331, -172.3482
78.800003, 104.038, -174.7863
80.000000, 103.756, -176.6767
81.199997, 103.479, -178.3074
82.500000, 103.186, -179.8812
83.800003, 102.907, 178.7433
85.000000, 102.671, 177.5688
86.199997, 102.450, 176.4287
87.500000, 102.222, 175.2861
88.500000, 102.058, 174.4592
90.000000, 101.819, 173.1097
91.199997, 101.599, 171.9855
92.500000, 101.346, 170.8063
93.800003, 101.075, 169.4993
95.000000, 100.805, 168.2096
96.199997, 100.518, 166.7341
97.500000, 100.152, 164.9449
98.800003, 99.704, 163.1657
100.000000, 99.212, 161.6757
101.500000, 98.474, 160.1256
103.000000, 97.583, 159.2355
104.400002, 96.619, 159.3970
106.000000, 95.438, 161.7422
107.500000, 94.443, 166.2713
109.000000, 93.698, 172.3974
110.599998, 93.229, 179.5022
112.000000, 93.050, -174.7771
113.800003, 93.032, -168.8209
115.000000, 93.095, -165.7224
117.199997, 93.328, -161.0211
118.000000, 93.441, -159.6410
120.599998, 93.621, -155.0608
122.000000, 93.768, -151.7545
124.099998, 94.081, -148.1271
125.000000, 94.204, -146.9944
126.500000, 94.413, -145.3698
128.000000, 94.625, -144.1528
131.500000, 94.983, -141.7049
132.000000, 95.028, -141.3626
134.000000, 95.185, -140.2696
136.000000, 95.305, -139.3886
138.000000, 95.429, -138.6121
140.000000, 95.541, -138.0649
143.000000, 95.667, -137.4940
145.000000, 95.731, -136.9561
147.500000, 95.830, -136.2809
150.000000, 95.915, -136.0935
152.500000, 95.966, -136.1185
155.000000, 95.972, -135.9968
157.500000, 95.871, -136.1865
160.000000, 95.641, -137.0919
162.500000, 95.395, -137.5475
165.000000, 95.377, -136.7311
167.500000, 95.352, -135.9962
170.000000, 95.181, -135.3769
172.500000, 94.959, -135.1178
175.000000, 94.758, -134.9678
177.500000, 94.526, -134.6168
180.000000, 94.241, -133.7151
182.500000, 93.975, -132.6581
185.000000, 93.726, -131.5853
187.500000, 93.481, -130.4957
190.000000, 93.222, -129.3528
192.500000, 92.958, -128.0560
195.000000, 92.693, -126.6195
197.500000, 92.428, -125.0856
200.000000, 92.165, -123.4638
203.000000, 91.849, -121.4164
206.000000, 91.530, -119.2332
209.000000, 91.224, -116.9976
212.000000, 90.931, -114.6838
214.000000, 90.741, -113.0365
218.000000, 90.388, -109.5740
220.000000, 90.229, -107.8395
224.000000, 89.927, -104.4302
227.000000, 89.700, -102.0046
230.000000, 89.464, -99.5862
233.000000, 89.204, -97.1406
236.000000, 88.920, -94.8831
240.000000, 88.552, -91.5143
243.000000, 88.305, -87.9985
247.000000, 87.980, -83.4476
250.000000, 87.767, -80.3713
254.000000, 87.507, -76.3608
258.000000, 87.226, -72.3940
262.000000, 86.961, -68.2766
265.000000, 86.751, -65.2133
269.000000, 86.467, -61.2838
272.000000, 86.272, -58.1174
276.000000, 86.020, -53.4614
280.000000, 85.762, -48.6666
285.000000, 85.447, -42.8251
290.000000, 85.156, -36.8834
295.000000, 84.876, -30.5841
300.000000, 84.614, -23.9268
304.000000, 84.416, -18.4086
307.000000, 84.299, -14.0495
311.000000, 84.212, -7.8944
315.000000, 84.235, -1.5259
320.000000, 84.440, 5.9389
325.000000, 84.741, 11.8645
330.000000, 84.962, 16.4077
335.000000, 85.018, 20.6267
340.000000, 84.976, 25.2774
345.000000, 84.921, 30.5097
350.000000, 84.894, 36.0891
355.000000, 84.911, 41.6165
360.000000, 84.962, 46.8963
365.000000, 85.044, 51.9745
370.000000, 85.130, 56.8924
375.000000, 85.183, 61.5172
382.000000, 85.184, 67.9250
387.000000, 85.156, 72.7361
395.000000, 85.114, 80.7160
400.000000, 85.097, 85.7868
406.000000, 85.091, 91.8807
412.000000, 85.103, 97.9231
418.000000, 85.119, 103.9639
425.000000, 85.130, 110.9749
431.000000, 85.132, 116.9737
437.000000, 85.131, 123.0064
444.000000, 85.129, 130.0745
450.000000, 85.138, 136.2452
455.000000, 85.167, 141.4303
462.000000, 85.234, 148.6740
468.000000, 85.298, 154.7310
475.000000, 85.368, 161.5301
482.000000, 85.418, 168.2750
487.000000, 85.436, 173.1264
494.000000, 85.457, 179.9693
500.000000, 85.476, -174.1129
508.000000, 85.498, -166.1258
515.000000, 85.518, -159.0695
522.000000, 85.544, -151.9737
530.000000, 85.584, -143.8344
538.000000, 85.628, -135.6305
545.000000, 85.669, -128.4054
552.000000, 85.717, -121.1722
560.000000, 85.782, -112.8991
570.000000, 85.879, -102.4506
580.000000, 86.002, -91.7931
590.000000, 86.165, -81.1341
600.000000, 86.352, -70.7643
608.000000, 86.496, -62.5969
615.000000, 86.616, -55.4303
622.000000, 86.739, -48.2321
630.000000, 86.888, -39.9720
640.000000, 87.094, -29.6932
650.000000, 87.318, -19.4744
660.000000, 87.563, -9.2929
670.000000, 87.830, 0.7691
680.000000, 88.101, 10.6497
690.000000, 88.369, 20.4022
700.000000, 88.640, 30.0939
710.000000, 88.917, 39.7119
720.000000, 89.202, 49.2055
730.000000, 89.484, 58.5901
740.000000, 89.758, 67.8642
750.000000, 90.030, 77.0389
762.000000, 90.347, 87.9481
775.000000, 90.675, 99.6738
788.000000, 90.987, 111.2877
800.000000, 91.264, 121.9102
812.000000, 91.532, 132.4402
825.000000, 91.809, 143.7758
838.000000, 92.068, 155.0535
850.000000, 92.290, 165.4080
862.000000, 92.490, 175.7025
875.000000, 92.683, -173.1507
885.000000, 92.816, -164.5409
900.000000, 93.001, -151.5730
912.000000, 93.136, -141.1493
925.000000, 93.270, -129.8101
938.000000, 93.395, -118.4299
950.000000, 93.504, -107.8968
962.000000, 93.607, -97.3593
975.000000, 93.709, -85.9478
988.000000, 93.800, -74.4795
1000.000000, 93.875, -63.8093
1015.000000, 93.957, -50.3996
1030.000000, 94.033, -36.9045
1044.000000, 94.096, -24.2266
1060.000000, 94.167, -9.7136
1075.000000, 94.229, 3.9105
1090.000000, 94.288, 17.5900
1106.000000, 94.361, 32.2714
1120.000000, 94.430, 45.1729
1138.000000, 94.516, 61.7970
1150.000000, 94.570, 72.8729
1172.000000, 94.657, 93.0561
1180.000000, 94.675, 100.3468
1206.000000, 94.642, 124.2302
1220.000000, 94.592, 137.5790
1241.000000, 94.575, 158.2532
1250.000000, 94.600, 167.1769
1265.000000, 94.668, -178.0239
1280.000000, 94.749, -163.3278
1315.000000, 94.943, -129.1844
1320.000000, 94.969, -124.3054
1340.000000, 95.065, -104.7702
1360.000000, 95.142, -85.2123
1380.000000, 95.213, -65.6644
1400.000000, 95.298, -46.0981
1430.000000, 95.443, -16.6599
1450.000000, 95.534, 2.9750
1475.000000, 95.629, 27.5504
1500.000000, 95.709, 52.3157
1525.000000, 95.789, 77.2899
1550.000000, 95.868, 102.3452
1575.000000, 95.941, 127.4175
1600.000000, 96.011, 152.5796
1625.000000, 96.062, 177.8845
1650.000000, 96.083, -156.5923
1675.000000, 96.082, -130.7111
1700.000000, 96.064, -104.3501
1725.000000, 96.024, -77.3684
1750.000000, 95.980, -49.3904
1775.000000, 96.037, -19.6647
1800.000000, 96.496, 12.3357
1825.000000, 97.760, 44.4858
1850.000000, 99.578, 71.1587
1875.000000, 101.001, 90.7871
1900.000000, 101.589, 108.3002
1925.000000, 101.616, 127.6230
1950.000000, 101.454, 149.5278
1975.000000, 101.334, 173.3724
2000.000000, 101.340, -161.8789
2030.000000, 101.469, -132.0668
2060.000000, 101.627, -102.3973
2090.000000, 101.780, -72.6099
2120.000000, 101.939, -42.6229
2140.000000, 102.049, -22.5403
2180.000000, 102.288, 17.8323
2200.000000, 102.420, 38.0823
2240.000000, 102.705, 78.6409
2270.000000, 102.937, 109.0575
2300.000000, 103.178, 139.4307
2330.000000, 103.427, 169.7627
2360.000000, 103.680, -159.9424
2400.000000, 104.019, -119.6301
2430.000000, 104.271, -89.4641
2470.000000, 104.598, -49.3311
2500.000000, 104.834, -19.2695
2540.000000, 105.138, 20.7968
2580.000000, 105.423, 60.8068
2620.000000, 105.679, 100.7139
2650.000000, 105.854, 130.6489
2690.000000, 106.068, 170.6670
2720.000000, 106.212, -159.2434
2760.000000, 106.382, -119.0039
2800.000000, 106.534, -78.5459
2850.000000, 106.732, -27.5903
2900.000000, 106.969, 23.6194
2950.000000, 107.250, 74.8203
3000.000000, 107.566, 125.6538
3040.000000, 107.798, 165.9316
3070.000000, 107.948, -163.9351
3110.000000, 108.134, -123.7263
3150.000000, 108.321, -83.6160
3200.000000, 108.520, -33.9473
3250.000000, 108.621, 15.2053
3300.000000, 108.595, 64.2817
3350.000000, 108.470, 113.7278
3400.000000, 108.279, 163.3418
3450.000000, 107.973, -147.1614
3500.000000, 107.457, -97.4902
3550.000000, 106.678, -46.7505
3600.000000, 105.704, 6.3540
3650.000000, 104.704, 62.9214
3700.000000, 104.025, 124.5835
3750.000000, 104.431, -170.7554
3820.000000, 106.191, -91.5366
3870.000000, 107.044, -42.0579
3950.000000, 107.220, 35.3572
4000.000000, 106.828, 85.5945
4060.000000, 106.244, 148.5293
4120.000000, 105.763, -146.9443
4180.000000, 105.433, -82.9641
4250.000000, 105.152, -17.9282
4310.000000, 104.778, 21.4856
4370.000000, 104.546, 52.0979
4440.000000, 104.435, 85.8159
4500.000000, 104.357, 113.7263
4550.000000, 104.255, 136.2888
4620.000000, 103.989, 167.0925
4680.000000, 103.612, -166.7932
4750.000000, 103.009, -135.9731
4820.000000, 102.285, -104.3862
4870.000000, 101.753, -81.2019
4940.000000, 101.113, -47.9067
5000.000000, 100.783, -18.8291
5080.000000, 100.787, 19.7891
5150.000000, 101.189, 52.2393
5220.000000, 101.768, 82.7129
5300.000000, 102.464, 115.2393
5380.000000, 103.103, 145.6714
5450.000000, 103.539, 170.9092
5520.000000, 103.775, -165.0557
5600.000000, 103.723, -138.6357
5700.000000, 103.227, -105.4976
5800.000000, 102.556, -71.4204
5900.000000, 101.998, -36.7407
6000.000000, 101.577, -2.2173
6080.000000, 101.311, 25.2222
6150.000000, 101.128, 49.1694
6220.000000, 101.006, 72.8813
6300.000000, 100.971, 99.4473
6400.000000, 101.103, 131.5542
6500.000000, 101.338, 161.9497
6600.000000, 101.531, -169.4966
6700.000000, 101.607, -141.9985
6800.000000, 101.552, -115.3916
6900.000000, 101.390, -89.4819
7000.000000, 101.141, -64.0078
7100.000000, 100.826, -38.7837
7200.000000, 100.479, -13.6108
7300.000000, 100.134, 11.3027
7400.000000, 99.828, 35.8438
7500.000000, 99.600, 60.0601
7620.000000, 99.486, 88.4185
7750.000000, 99.550, 117.5039
7880.000000, 99.584, 144.6792
8000.000000, 99.447, 168.4873
8120.000000, 99.108, -168.4712
8250.000000, 98.560, -144.3340
8380.000000, 97.936, -120.4473
8500.000000, 97.409, -99.0815
8620.000000, 97.004, -77.9834
8750.000000, 96.635, -56.0410
8850.000000, 96.318, -39.9146
9000.000000, 95.786, -16.8447
9120.000000, 95.374, 0.8257
9250.000000, 94.889, 19.1587
9380.000000, 94.200, 36.6099
9500.000000, 93.285, 52.7910
9620.000000, 92.102, 69.5278
9750.000000, 90.583, 88.8623
9880.000000, 89.180, 110.2837
10000.000000, 88.706, 130.8047
10150.000000, 89.584, 154.5776
10300.000000, 91.073, 174.5513
10440.000000, 92.344, -169.8984
10600.000000, 93.657, -156.6245
10750.000000, 94.939, -147.0400
10900.000000, 96.243, -139.7803
11060.000000, 97.329, -136.2998
11200.000000, 97.704, -135.0508
11380.000000, 97.324, -135.3062
11500.000000, 96.750, -130.9995
11720.000000, 95.658, -163.4858
11800.000000, 95.361, -134.6523
12060.000000, 94.243, -32.1660
12200.000000, 93.173, 10.8862
12410.000000, 90.824, 81.5723
12500.000000, 89.608, 116.7080
12650.000000, 87.604, 172.7456
12800.000000, 86.290, -132.8872
13150.000000, 87.153, -5.3442
13200.000000, 87.522, 11.7544
13400.000000, 89.024, 77.2075
13600.000000, 90.166, 138.7007
13800.000000, 90.896, -163.0479
14000.000000, 91.241, -106.9907
14300.000000, 90.860, -25.5063
14500.000000, 90.227, 27.2969
14750.000000, 89.674, 92.5117
15000.000000, 89.651, 152.7051
15250.000000, 89.781, -152.5532
15500.000000, 89.558, -107.2891
15750.000000, 88.609, -63.2476
16000.000000, 86.076, -18.3706
16250.000000, 82.464, 36.7251
16500.000000, 80.630, 98.4575
16750.000000, 80.409, 161.8813
17000.000000, 80.433, -135.1841
17250.000000, 80.709, -71.9517
17500.000000, 80.088, -10.2163
17750.000000, 77.159, 57.7700
18000.000000, 72.473, 140.8662
18250.000000, 70.967, -134.2466
18500.000000, 72.984, -52.4497
18750.000000, 74.521, 18.9492
19000.000000, 75.212, 91.5059
19250.000000, 75.392, 159.9473
19500.000000, 75.481, -129.3481
19750.000000, 75.742, -57.9668
20000.000000, 75.858, 12.3853
20300.000000, 75.159, 95.0557
20600.000000, 73.116, 179.7407
20900.000000, 69.984, -87.0635
21200.000000, 65.911, -0.9131
21400.000000, 62.279, 72.7368
21800.000000, 52.652, -158.0479
22000.000000, 47.366, 29.2988
22400.000000, 38.043, 78.1240
22700.000000, 33.657, 5.6240
23000.000000, 30.587, -76.1445
23300.000000, 25.940, -103.0557
23600.000000, 20.757, 177.8574
24000.000000, 17.507, -166.4414
