* Measurement data measured by REW V5.31.3
* Source: Headset (DS by VECLAN.COM), MICROPHONE (Master Volume), L, volume: 0.720. Timing signal peak level -18.4 dBFS, measurement signal peak level -11.0 dBFS
* Format: 2M Log Swept Sine, 1 sweep at -14.4 dBFS using an acoustic timing reference
* Dated: Nov 5, 2024 11:33:17 PM
* REW Settings:
*  C-weighting compensation: Off
*  Target level: 85.0 dB
* Note: ; Delay -0.0746 ms (-26 mm, -1.01 in) using estimated IR delay relative to Acoustic reference played from HEADPHONE R with no timing offset Clock adjustment: -111.5 ppm
* Measurement: Popularity ANC R4
* Smoothing: 1/24 octave
* Frequency Step: 1/48 octave
* Start Frequency: 1.000 Hz
*
* Freq(Hz), SPL(dB), Phase(degrees)
1.000000, 45.062, 167.2389
1.015000, 45.232, 166.4365
1.030000, 45.405, 165.5947
1.044000, 45.568, 164.7730
1.060000, 45.756, 163.7909
1.075000, 45.934, 162.8287
1.090000, 46.115, 161.8293
1.106000, 46.310, 160.7400
1.120000, 46.485, 159.7968
1.138000, 46.714, 158.6162
1.150000, 46.870, 157.8485
1.172000, 47.162, 156.4745
1.180000, 47.270, 155.9839
1.206000, 47.628, 154.4139
1.220000, 47.824, 153.5799
1.241000, 48.122, 152.3369
1.250000, 48.251, 151.8056
1.265000, 48.468, 150.9198
1.280000, 48.687, 150.0317
1.315000, 49.202, 147.9385
1.320000, 49.276, 147.6361
1.340000, 49.573, 146.4156
1.360000, 49.871, 145.1752
1.380000, 50.169, 143.9124
1.400000, 50.467, 142.6249
1.430000, 50.911, 140.6446
1.450000, 51.205, 139.2925
1.475000, 51.571, 137.5906
1.500000, 51.939, 135.9365
1.525000, 52.310, 134.3528
1.550000, 52.685, 132.8315
1.575000, 53.062, 131.3614
1.600000, 53.440, 129.9316
1.625000, 53.819, 128.5323
1.650000, 54.199, 127.1543
1.675000, 54.577, 125.7895
1.700000, 54.953, 124.4306
1.725000, 55.327, 123.0714
1.750000, 55.698, 121.7063
1.775000, 56.065, 120.3308
1.800000, 56.428, 118.9416
1.825000, 56.785, 117.5408
1.850000, 57.138, 116.1494
1.875000, 57.488, 114.7950
1.900000, 57.836, 113.4839
1.925000, 58.182, 112.2118
1.950000, 58.525, 110.9729
1.975000, 58.866, 109.7615
2.000000, 59.204, 108.5724
2.030000, 59.605, 107.1676
2.060000, 60.002, 105.7795
2.090000, 60.394, 104.4008
2.120000, 60.781, 103.0249
2.140000, 61.036, 102.1064
2.180000, 61.538, 100.2615
2.200000, 61.786, 99.3379
2.240000, 62.273, 97.5176
2.270000, 62.632, 96.1898
2.300000, 62.986, 94.8936
2.330000, 63.334, 93.6249
2.360000, 63.678, 92.3799
2.400000, 64.129, 90.7491
2.430000, 64.462, 89.5428
2.470000, 64.898, 87.9491
2.500000, 65.220, 86.7601
2.540000, 65.643, 85.1777
2.580000, 66.057, 83.6005
2.620000, 66.463, 82.0458
2.650000, 66.761, 80.9003
2.690000, 67.152, 79.4003
2.720000, 67.439, 78.2941
2.760000, 67.816, 76.8419
2.800000, 68.186, 75.4115
2.850000, 68.638, 73.6480
2.900000, 69.080, 71.9036
2.950000, 69.512, 70.1743
3.000000, 69.932, 68.4678
3.040000, 70.261, 67.1238
3.070000, 70.502, 66.1290
3.110000, 70.819, 64.8202
3.150000, 71.129, 63.5307
3.200000, 71.509, 61.9444
3.250000, 71.880, 60.3831
3.300000, 72.244, 58.8428
3.350000, 72.598, 57.3204
3.400000, 72.944, 55.8174
3.450000, 73.280, 54.3372
3.500000, 73.608, 52.8822
3.550000, 73.929, 51.4533
3.600000, 74.242, 50.0506
3.650000, 74.549, 48.6722
3.700000, 74.850, 47.3134
3.750000, 75.143, 45.9704
3.820000, 75.541, 44.1204
3.870000, 75.817, 42.8245
3.950000, 76.246, 40.8013
4.000000, 76.508, 39.5690
4.060000, 76.815, 38.1185
4.120000, 77.113, 36.6907
4.180000, 77.402, 35.2859
4.250000, 77.731, 33.6819
4.310000, 78.005, 32.3416
4.370000, 78.273, 31.0349
4.440000, 78.578, 29.5476
4.500000, 78.832, 28.2969
4.550000, 79.039, 27.2718
4.620000, 79.321, 25.8666
4.680000, 79.557, 24.6937
4.750000, 79.827, 23.3640
4.820000, 80.090, 22.0709
4.870000, 80.274, 21.1653
4.940000, 80.525, 19.9231
5.000000, 80.735, 18.8843
5.080000, 81.010, 17.5401
5.150000, 81.246, 16.4022
5.220000, 81.476, 15.2950
5.300000, 81.733, 14.0635
5.380000, 81.985, 12.8690
5.450000, 82.201, 11.8550
5.520000, 82.414, 10.8704
5.600000, 82.653, 9.7773
5.700000, 82.945, 8.4549
5.800000, 83.231, 7.1781
5.900000, 83.513, 5.9450
6.000000, 83.790, 4.7532
6.080000, 84.008, 3.8262
6.150000, 84.196, 3.0316
6.220000, 84.382, 2.2512
6.300000, 84.593, 1.3762
6.400000, 84.853, 0.3070
6.500000, 85.108, -0.7385
6.600000, 85.360, -1.7647
6.700000, 85.608, -2.7729
6.800000, 85.851, -3.7632
6.900000, 86.090, -4.7363
7.000000, 86.325, -5.6939
7.100000, 86.555, -6.6373
7.200000, 86.781, -7.5649
7.300000, 87.003, -8.4749
7.400000, 87.219, -9.3676
7.500000, 87.432, -10.2443
7.620000, 87.681, -11.2717
7.750000, 87.945, -12.3510
7.880000, 88.203, -13.3975
8.000000, 88.436, -14.3337
8.120000, 88.665, -15.2395
8.250000, 88.910, -16.1887
8.380000, 89.150, -17.1080
8.500000, 89.370, -17.9313
8.620000, 89.587, -18.7319
8.750000, 89.821, -19.5789
8.850000, 89.999, -20.2184
9.000000, 90.264, -21.1591
9.120000, 90.474, -21.8992
9.250000, 90.699, -22.6914
9.380000, 90.922, -23.4738
9.500000, 91.126, -24.1866
9.620000, 91.327, -24.8915
9.750000, 91.541, -25.6448
9.880000, 91.745, -26.3839
10.000000, 91.921, -27.0526
10.150000, 92.127, -27.8689
10.300000, 92.324, -28.6591
10.440000, 92.502, -29.3723
10.600000, 92.704, -30.1605
10.750000, 92.898, -30.8734
10.900000, 93.094, -31.5660
11.060000, 93.307, -32.2903
11.200000, 93.495, -32.9148
11.380000, 93.741, -33.7194
11.500000, 93.907, -34.2607
11.720000, 94.217, -35.2746
11.800000, 94.332, -35.6534
12.060000, 94.710, -36.9235
12.200000, 94.916, -37.6342
12.410000, 95.224, -38.7311
12.500000, 95.355, -39.2108
12.650000, 95.571, -40.0206
12.800000, 95.785, -40.8391
13.150000, 96.277, -42.7634
13.200000, 96.348, -43.0385
13.400000, 96.629, -44.1375
13.600000, 96.913, -45.2365
13.800000, 97.200, -46.3394
14.000000, 97.490, -47.4565
14.300000, 97.932, -49.1811
14.500000, 98.231, -50.3815
14.750000, 98.609, -51.9585
15.000000, 98.989, -53.6340
15.250000, 99.372, -55.4174
15.500000, 99.751, -57.3094
15.750000, 100.122, -59.3054
16.000000, 100.484, -61.3970
16.250000, 100.834, -63.5747
16.500000, 101.172, -65.8304
16.750000, 101.500, -68.1587
17.000000, 101.818, -70.5580
17.250000, 102.125, -73.0299
17.500000, 102.419, -75.5772
17.750000, 102.700, -78.2027
18.000000, 102.964, -80.9058
18.250000, 103.209, -83.6814
18.500000, 103.433, -86.5187
18.750000, 103.634, -89.4014
19.000000, 103.811, -92.3096
19.250000, 103.964, -95.2200
19.500000, 104.093, -98.1110
19.750000, 104.199, -100.9637
20.000000, 104.285, -103.7628
20.299999, 104.362, -107.0377
20.600000, 104.416, -110.2139
20.900000, 104.449, -113.2903
21.200001, 104.463, -116.2678
21.400000, 104.462, -118.1974
21.799999, 104.435, -121.9187
22.000000, 104.410, -123.7057
22.400000, 104.338, -127.1186
22.700001, 104.268, -129.5276
23.000000, 104.187, -131.8022
23.299999, 104.098, -133.9427
23.600000, 104.002, -135.9535
24.000000, 103.868, -138.4454
24.299999, 103.765, -140.1842
24.700001, 103.623, -142.3456
25.000000, 103.514, -143.8577
25.400000, 103.365, -145.7348
25.799999, 103.212, -147.4523
26.200001, 103.056, -149.0052
26.500000, 102.940, -150.0623
26.900000, 102.789, -151.3405
27.200001, 102.681, -152.2164
27.600000, 102.544, -153.3007
28.000000, 102.411, -154.3083
28.500000, 102.248, -155.4614
29.000000, 102.089, -156.4765
29.500000, 101.938, -157.3583
30.000000, 101.797, -158.1470
30.400000, 101.688, -158.7263
30.700001, 101.605, -159.1195
31.100000, 101.496, -159.5589
31.500000, 101.393, -159.8762
32.000000, 101.289, -160.1207
32.500000, 101.222, -160.3033
33.000000, 101.189, -160.5602
33.500000, 101.173, -160.9648
34.000000, 101.160, -161.5146
34.500000, 101.141, -162.1695
35.000000, 101.107, -162.8739
35.500000, 101.057, -163.5591
36.000000, 100.995, -164.1589
36.500000, 100.932, -164.6454
37.000000, 100.879, -165.0471
37.500000, 100.839, -165.4225
38.200001, 100.796, -165.9841
38.700001, 100.769, -166.4247
39.500000, 100.721, -167.1674
40.000000, 100.686, -167.6230
40.599998, 100.642, -168.1235
41.200001, 100.597, -168.5551
41.799999, 100.557, -168.9187
42.500000, 100.522, -169.2692
43.099998, 100.504, -169.5314
43.700001, 100.495, -169.7949
44.400002, 100.490, -170.1205
45.000000, 100.486, -170.3899
45.500000, 100.485, -170.5952
46.200001, 100.487, -170.8660
46.799999, 100.492, -171.0925
47.500000, 100.501, -171.3330
48.200001, 100.517, -171.5452
48.700001, 100.534, -171.6970
49.400002, 100.564, -171.9298
50.000000, 100.593, -172.1461
50.799999, 100.637, -172.4461
51.500000, 100.684, -172.7301
52.200001, 100.736, -173.0533
53.000000, 100.798, -173.4524
53.799999, 100.866, -173.8513
54.500000, 100.935, -174.2241
55.200001, 101.009, -174.6305
56.000000, 101.102, -175.1289
57.000000, 101.227, -175.8881
58.000000, 101.333, -176.6897
59.000000, 101.456, -177.4010
60.000000, 101.590, -178.3464
60.799999, 101.671, -179.1749
61.500000, 101.737, -179.8159
62.200001, 101.812, 179.5566
63.000000, 101.903, 178.7829
64.000000, 102.021, 177.7566
65.000000, 102.150, 176.6506
66.000000, 102.289, 175.4213
67.000000, 102.436, 174.0339
68.000000, 102.585, 172.4731
69.000000, 102.732, 170.7098
70.000000, 102.865, 168.7263
71.000000, 102.979, 166.5380
72.000000, 103.064, 164.1436
73.000000, 103.109, 161.5797
74.000000, 103.109, 158.9246
75.000000, 103.063, 156.2614
76.199997, 102.953, 153.1562
77.500000, 102.779, 149.9941
78.800003, 102.561, 147.1175
80.000000, 102.337, 144.7356
81.199997, 102.101, 142.5932
82.500000, 101.840, 140.5079
83.800003, 101.576, 138.6504
85.000000, 101.337, 137.1337
86.199997, 101.110, 135.7614
87.500000, 100.874, 134.3907
88.500000, 100.700, 133.4030
90.000000, 100.454, 131.9850
91.199997, 100.266, 130.8564
92.500000, 100.069, 129.6316
93.800003, 99.879, 128.3928
95.000000, 99.706, 127.2120
96.199997, 99.529, 125.9739
97.500000, 99.326, 124.5636
98.800003, 99.103, 123.0912
100.000000, 98.872, 121.6978
101.500000, 98.544, 119.9547
103.000000, 98.161, 118.3056
104.400002, 97.747, 117.0226
106.000000, 97.225, 116.1108
107.500000, 96.723, 115.9083
109.000000, 96.253, 116.2985
110.599998, 95.830, 117.1221
112.000000, 95.535, 117.8950
113.800003, 95.214, 118.7034
115.000000, 95.007, 119.1921
117.199997, 94.617, 120.1973
118.000000, 94.475, 120.6407
120.599998, 94.116, 121.9615
122.000000, 93.936, 122.1727
124.099998, 93.656, 122.7026
125.000000, 93.549, 123.0273
126.500000, 93.379, 123.6307
128.000000, 93.212, 124.3368
131.500000, 92.843, 126.1133
132.000000, 92.794, 126.3609
134.000000, 92.616, 127.3590
136.000000, 92.466, 128.3402
138.000000, 92.327, 129.3023
140.000000, 92.198, 130.2897
143.000000, 92.037, 131.6730
145.000000, 91.950, 132.5847
147.500000, 91.874, 133.6881
150.000000, 91.819, 134.6577
152.500000, 91.772, 135.4899
155.000000, 91.724, 136.1787
157.500000, 91.689, 136.7398
160.000000, 91.681, 137.1895
162.500000, 91.664, 137.5048
165.000000, 91.601, 137.9958
167.500000, 91.544, 138.4321
170.000000, 91.501, 138.5428
172.500000, 91.467, 138.5332
175.000000, 91.425, 138.5686
177.500000, 91.359, 138.6874
180.000000, 91.285, 138.7811
182.500000, 91.217, 138.7897
185.000000, 91.151, 138.7279
187.500000, 91.074, 138.6839
190.000000, 90.992, 138.6409
192.500000, 90.907, 138.5717
195.000000, 90.817, 138.5002
197.500000, 90.720, 138.4484
200.000000, 90.617, 138.3829
203.000000, 90.490, 138.2898
206.000000, 90.359, 138.2384
209.000000, 90.219, 138.2328
212.000000, 90.069, 138.2845
214.000000, 89.967, 138.3611
218.000000, 89.764, 138.6115
220.000000, 89.667, 138.7886
224.000000, 89.484, 139.1956
227.000000, 89.355, 139.4658
230.000000, 89.224, 139.7193
233.000000, 89.078, 139.9451
236.000000, 88.907, 140.0034
240.000000, 88.689, 140.1318
243.000000, 88.572, 140.4687
247.000000, 88.406, 141.1660
250.000000, 88.278, 141.7429
254.000000, 88.120, 142.4685
258.000000, 87.963, 143.0599
262.000000, 87.808, 143.5452
265.000000, 87.689, 143.9213
269.000000, 87.526, 144.4368
272.000000, 87.402, 144.7960
276.000000, 87.234, 145.2649
280.000000, 87.065, 145.7403
285.000000, 86.851, 146.3621
290.000000, 86.617, 147.0039
295.000000, 86.354, 147.7462
300.000000, 86.061, 148.6184
304.000000, 85.813, 149.4135
307.000000, 85.616, 150.1985
311.000000, 85.344, 151.6461
315.000000, 85.099, 153.6418
320.000000, 84.909, 156.6935
325.000000, 84.889, 159.4958
330.000000, 84.952, 161.2939
335.000000, 84.965, 162.2670
340.000000, 84.887, 163.0720
345.000000, 84.749, 164.1588
350.000000, 84.598, 165.6503
355.000000, 84.473, 167.5162
360.000000, 84.403, 169.5231
365.000000, 84.413, 171.3086
370.000000, 84.465, 172.7686
375.000000, 84.500, 173.7558
382.000000, 84.468, 174.9029
387.000000, 84.407, 175.8771
395.000000, 84.305, 177.7102
400.000000, 84.254, 178.9451
406.000000, 84.211, -179.5505
412.000000, 84.181, -178.0594
418.000000, 84.159, -176.6113
425.000000, 84.136, -175.0382
431.000000, 84.121, -173.7902
437.000000, 84.103, -172.5816
444.000000, 84.070, -171.1592
450.000000, 84.040, -169.8588
455.000000, 84.024, -168.7037
462.000000, 84.029, -167.0433
468.000000, 84.061, -165.7152
475.000000, 84.103, -164.4220
482.000000, 84.129, -163.3654
487.000000, 84.136, -162.6688
494.000000, 84.131, -161.6831
500.000000, 84.118, -160.8260
508.000000, 84.093, -159.6212
515.000000, 84.066, -158.5342
522.000000, 84.037, -157.4404
530.000000, 84.005, -156.1567
538.000000, 83.973, -154.8341
545.000000, 83.940, -153.6738
552.000000, 83.908, -152.5076
560.000000, 83.866, -151.1712
570.000000, 83.806, -149.4022
580.000000, 83.763, -147.4718
590.000000, 83.751, -145.4854
600.000000, 83.761, -143.6755
608.000000, 83.757, -142.4066
615.000000, 83.738, -141.2931
622.000000, 83.712, -140.1348
630.000000, 83.680, -138.7371
640.000000, 83.644, -136.9139
650.000000, 83.616, -135.0315
660.000000, 83.593, -133.0914
670.000000, 83.581, -131.1315
680.000000, 83.576, -129.2548
690.000000, 83.573, -127.3726
700.000000, 83.572, -125.4337
710.000000, 83.567, -123.5027
720.000000, 83.572, -121.5448
730.000000, 83.584, -119.5735
740.000000, 83.603, -117.5759
750.000000, 83.632, -115.5360
762.000000, 83.680, -113.0312
775.000000, 83.749, -110.2855
788.000000, 83.825, -107.6115
800.000000, 83.909, -105.1828
812.000000, 84.009, -102.7695
825.000000, 84.134, -100.2294
838.000000, 84.284, -97.7667
850.000000, 84.432, -95.6053
862.000000, 84.581, -93.5533
875.000000, 84.738, -91.4138
885.000000, 84.856, -89.8117
900.000000, 85.038, -87.4990
912.000000, 85.186, -85.7032
925.000000, 85.347, -83.7737
938.000000, 85.509, -81.8899
950.000000, 85.661, -80.2029
962.000000, 85.818, -78.5617
975.000000, 85.987, -76.8831
988.000000, 86.148, -75.2864
1000.000000, 86.295, -73.8309
1015.000000, 86.475, -72.0464
1030.000000, 86.648, -70.3240
1044.000000, 86.806, -68.7720
1060.000000, 86.991, -67.0507
1075.000000, 87.164, -65.4825
1090.000000, 87.339, -63.9628
1106.000000, 87.534, -62.3735
1120.000000, 87.705, -61.0228
1138.000000, 87.925, -59.3881
1150.000000, 88.069, -58.3713
1172.000000, 88.321, -56.7667
1180.000000, 88.400, -56.2899
1206.000000, 88.548, -54.8049
1220.000000, 88.574, -53.6025
1241.000000, 88.651, -51.0801
1250.000000, 88.716, -49.9138
1265.000000, 88.859, -48.0814
1280.000000, 89.022, -46.4269
1315.000000, 89.400, -42.9839
1320.000000, 89.452, -42.5213
1340.000000, 89.643, -40.7108
1360.000000, 89.806, -38.9484
1380.000000, 89.962, -37.2296
1400.000000, 90.125, -35.5391
1430.000000, 90.369, -33.0746
1450.000000, 90.521, -31.5135
1475.000000, 90.685, -29.5855
1500.000000, 90.823, -27.5731
1525.000000, 90.950, -25.4079
1550.000000, 91.072, -23.1742
1575.000000, 91.186, -20.9678
1600.000000, 91.283, -18.7729
1625.000000, 91.355, -16.4685
1650.000000, 91.396, -13.9313
1675.000000, 91.411, -11.1195
1700.000000, 91.400, -7.9984
1725.000000, 91.361, -4.3613
1750.000000, 91.303, 0.2037
1775.000000, 91.306, 6.4394
1800.000000, 91.626, 15.0177
1825.000000, 92.660, 24.4671
1850.000000, 94.332, 29.7640
1875.000000, 95.873, 28.3971
1900.000000, 96.798, 23.6907
1925.000000, 97.141, 18.9584
1950.000000, 97.104, 16.0762
1975.000000, 96.968, 15.5159
2000.000000, 96.921, 16.3529
2030.000000, 96.994, 17.6917
2060.000000, 97.119, 18.8809
2090.000000, 97.243, 20.1245
2120.000000, 97.368, 21.5286
2140.000000, 97.454, 22.5765
2180.000000, 97.646, 24.9802
2200.000000, 97.755, 26.2451
2240.000000, 98.009, 28.6063
2270.000000, 98.214, 29.8334
2300.000000, 98.418, 30.4572
2330.000000, 98.631, 30.6887
2360.000000, 98.847, 30.7008
2400.000000, 99.138, 30.5026
2430.000000, 99.354, 30.2672
2470.000000, 99.630, 29.8374
2500.000000, 99.831, 29.4218
2540.000000, 100.085, 28.7554
2580.000000, 100.320, 27.9601
2620.000000, 100.531, 27.0602
2650.000000, 100.671, 26.3430
2690.000000, 100.836, 25.3719
2720.000000, 100.945, 24.6411
2760.000000, 101.071, 23.6887
2800.000000, 101.180, 22.8539
2850.000000, 101.323, 22.0449
2900.000000, 101.515, 21.2906
2950.000000, 101.756, 20.2396
3000.000000, 102.012, 18.6014
3040.000000, 102.182, 16.8367
3070.000000, 102.273, 15.4070
3110.000000, 102.366, 13.5401
3150.000000, 102.457, 11.6185
3200.000000, 102.556, 8.7639
3250.000000, 102.574, 5.3553
3300.000000, 102.465, 1.6962
3350.000000, 102.245, -1.8053
3400.000000, 101.962, -5.1272
3450.000000, 101.579, -8.5951
3500.000000, 100.997, -11.9791
3550.000000, 100.159, -14.3652
3600.000000, 99.117, -14.5793
3650.000000, 98.033, -11.6642
3700.000000, 97.223, -4.1028
3750.000000, 97.442, 6.8197
3820.000000, 99.125, 12.2153
3870.000000, 100.011, 8.7019
3950.000000, 100.236, 0.3674
4000.000000, 99.868, -3.3071
4060.000000, 99.317, -5.0696
4120.000000, 98.882, -5.1465
4180.000000, 98.556, -4.6995
4250.000000, 98.280, -3.7261
4310.000000, 98.167, -2.6459
4370.000000, 98.163, -1.7778
4440.000000, 98.234, -1.5594
4500.000000, 98.306, -2.1945
4550.000000, 98.328, -3.3131
4620.000000, 98.233, -5.5886
4680.000000, 97.994, -7.7460
4750.000000, 97.532, -9.8006
4820.000000, 96.935, -10.5693
4870.000000, 96.484, -10.0530
4940.000000, 95.922, -7.7666
5000.000000, 95.605, -4.6091
5080.000000, 95.556, 0.3307
5150.000000, 95.890, 3.8163
5220.000000, 96.411, 5.3235
5300.000000, 97.058, 4.9698
5380.000000, 97.670, 2.8118
5450.000000, 98.090, -0.5151
5520.000000, 98.309, -5.0053
5600.000000, 98.215, -10.7263
5700.000000, 97.602, -16.4998
5800.000000, 96.784, -19.1193
5900.000000, 96.119, -19.3966
6000.000000, 95.655, -18.8690
6080.000000, 95.389, -18.1714
6150.000000, 95.223, -17.2668
6220.000000, 95.129, -15.8324
6300.000000, 95.150, -13.2325
6400.000000, 95.372, -9.5233
6500.000000, 95.711, -6.9154
6600.000000, 96.018, -5.6767
6700.000000, 96.213, -5.2815
6800.000000, 96.287, -5.2903
6900.000000, 96.261, -5.3717
7000.000000, 96.158, -5.2027
7100.000000, 95.999, -4.5704
7200.000000, 95.815, -3.4135
7300.000000, 95.637, -1.7785
7400.000000, 95.500, 0.2689
7500.000000, 95.440, 2.5867
7620.000000, 95.526, 5.3386
7750.000000, 95.813, 7.7141
7880.000000, 96.068, 8.4340
8000.000000, 96.117, 7.5548
8120.000000, 95.923, 6.2966
8250.000000, 95.486, 5.7938
8380.000000, 94.941, 6.7478
8500.000000, 94.477, 8.8323
8620.000000, 94.147, 11.3197
8750.000000, 93.891, 13.4160
8850.000000, 93.680, 14.5810
9000.000000, 93.328, 16.3940
9120.000000, 93.065, 17.7175
9250.000000, 92.745, 18.2570
9380.000000, 92.220, 18.0018
9500.000000, 91.447, 17.9637
9620.000000, 90.379, 19.1965
9750.000000, 88.937, 23.7701
9880.000000, 87.526, 34.6852
10000.000000, 86.965, 50.5823
10150.000000, 87.761, 68.9174
10300.000000, 89.252, 78.8709
10440.000000, 90.548, 83.2380
10600.000000, 91.910, 86.1296
10750.000000, 93.266, 87.2539
10900.000000, 94.695, 85.2742
11060.000000, 95.945, 78.6028
11200.000000, 96.439, 69.9700
11380.000000, 96.106, 59.1505
11500.000000, 95.503, 54.0376
11720.000000, 94.331, 48.4760
11800.000000, 93.953, 46.8182
12060.000000, 92.565, 40.5060
12200.000000, 91.464, 37.0869
12410.000000, 89.149, 34.9940
12500.000000, 87.949, 36.5233
12650.000000, 85.941, 44.4688
12800.000000, 84.543, 58.8933
13150.000000, 85.208, 89.1712
13200.000000, 85.570, 91.5869
13400.000000, 87.112, 95.8690
13600.000000, 88.366, 93.9657
13800.000000, 89.239, 88.7235
14000.000000, 89.749, 81.0887
14300.000000, 89.702, 67.5723
14500.000000, 89.348, 59.1868
14750.000000, 89.139, 48.4856
15000.000000, 89.345, 33.3984
15250.000000, 89.547, 11.3284
15500.000000, 89.318, -16.7418
15750.000000, 88.411, -48.6930
16000.000000, 86.044, -78.6128
16250.000000, 82.551, -94.0172
16500.000000, 80.717, -97.4117
16750.000000, 80.616, -103.1079
17000.000000, 80.746, -110.6420
17250.000000, 81.079, -121.1921
17500.000000, 80.594, -138.1797
17750.000000, 77.864, -153.6561
18000.000000, 73.183, -141.6062
18250.000000, 71.138, -86.0616
18500.000000, 73.047, -69.5054
18750.000000, 74.659, -67.0287
19000.000000, 75.441, -66.3914
19250.000000, 75.691, -63.9700
19500.000000, 75.793, -58.9340
19750.000000, 76.003, -53.6250
20000.000000, 76.031, -51.4073
20300.000000, 75.422, -53.6205
20600.000000, 73.931, -58.3687
20900.000000, 71.248, -59.6118
21200.000000, 67.007, -55.2957
21400.000000, 63.151, -50.8514
21800.000000, 53.184, -47.4777
22000.000000, 47.651, -50.1375
22400.000000, 37.677, -44.0269
22700.000000, 32.976, -28.4728
23000.000000, 30.111, -11.7490
23300.000000, 25.862, -37.9039
23600.000000, 20.925, -147.1859
24000.000000, 17.519, -148.1028
