* Measurement data measured by REW V5.31.3
* Source: Headset (DS by VECLAN.COM), MICROPHONE (Master Volume), L, volume: 0.720. Timing signal peak level -19.7 dBFS, measurement signal peak level -10.7 dBFS
* Format: 2M Log Swept Sine, 1 sweep at -14.4 dBFS using an acoustic timing reference
* Dated: Nov 5, 2024 11:29:46 PM
* REW Settings:
*  C-weighting compensation: Off
*  Target level: 85.0 dB
* Note: ; Delay -1.7359 ms (-595 mm, -(1 ft 11.44 in)) using estimated IR delay relative to Acoustic reference played from HEADPHONE R with no timing offset Clock adjustment: -397.6 ppm
* Measurement: Popularity Ambient R4
* Smoothing: 1/24 octave
* Frequency Step: 1/48 octave
* Start Frequency: 1.000 Hz
*
* Freq(Hz), SPL(dB), Phase(degrees)
1.000000, 33.803, 162.9962
1.015000, 34.228, 161.0379
1.030000, 34.649, 159.0975
1.044000, 35.036, 157.2997
1.060000, 35.471, 155.2586
1.075000, 35.869, 153.3571
1.090000, 36.258, 151.4713
1.106000, 36.665, 149.5063
1.120000, 37.019, 147.8735
1.138000, 37.474, 145.9155
1.150000, 37.778, 144.6919
1.172000, 38.336, 142.5955
1.180000, 38.538, 141.8746
1.206000, 39.197, 139.6590
1.220000, 39.550, 138.5346
1.241000, 40.079, 136.9203
1.250000, 40.304, 136.2509
1.265000, 40.679, 135.1605
1.280000, 41.051, 134.0967
1.315000, 41.911, 131.6929
1.320000, 42.032, 131.3564
1.340000, 42.515, 130.0223
1.360000, 42.991, 128.7032
1.380000, 43.460, 127.3937
1.400000, 43.921, 126.0897
1.430000, 44.597, 124.1370
1.450000, 45.036, 122.8367
1.475000, 45.571, 121.2367
1.500000, 46.092, 119.7253
1.525000, 46.601, 118.3172
1.550000, 47.099, 116.9954
1.575000, 47.586, 115.7416
1.600000, 48.062, 114.5397
1.625000, 48.529, 113.3762
1.650000, 48.987, 112.2394
1.675000, 49.437, 111.1197
1.700000, 49.879, 110.0088
1.725000, 50.313, 108.9000
1.750000, 50.742, 107.7877
1.775000, 51.165, 106.6674
1.800000, 51.582, 105.5361
1.825000, 51.995, 104.3961
1.850000, 52.401, 103.2674
1.875000, 52.800, 102.1758
1.900000, 53.190, 101.1253
1.925000, 53.573, 100.1100
1.950000, 53.949, 99.1236
1.975000, 54.317, 98.1599
2.000000, 54.679, 97.2134
2.030000, 55.106, 96.0938
2.060000, 55.525, 94.9845
2.090000, 55.936, 93.8792
2.120000, 56.341, 92.7722
2.140000, 56.608, 92.0310
2.180000, 57.134, 90.5375
2.200000, 57.393, 89.7881
2.240000, 57.903, 88.3127
2.270000, 58.276, 87.2385
2.300000, 58.641, 86.1899
2.330000, 58.999, 85.1628
2.360000, 59.351, 84.1526
2.400000, 59.810, 82.8249
2.430000, 60.147, 81.8386
2.470000, 60.589, 80.5296
2.500000, 60.915, 79.5483
2.540000, 61.342, 78.2361
2.580000, 61.763, 76.9240
2.620000, 62.173, 75.6306
2.650000, 62.475, 74.6779
2.690000, 62.868, 73.4292
2.720000, 63.157, 72.5064
2.760000, 63.536, 71.2907
2.800000, 63.906, 70.0877
2.850000, 64.359, 68.5950
2.900000, 64.803, 67.1075
2.950000, 65.237, 65.6244
3.000000, 65.660, 64.1590
3.040000, 65.990, 63.0042
3.070000, 66.232, 62.1481
3.110000, 66.550, 61.0185
3.150000, 66.862, 59.9008
3.200000, 67.243, 58.5172
3.250000, 67.616, 57.1444
3.300000, 67.982, 55.7793
3.350000, 68.339, 54.4240
3.400000, 68.687, 53.0834
3.450000, 69.026, 51.7591
3.500000, 69.357, 50.4511
3.550000, 69.681, 49.1587
3.600000, 69.997, 47.8800
3.650000, 70.307, 46.6126
3.700000, 70.610, 45.3541
3.750000, 70.906, 44.1042
3.820000, 71.308, 42.3740
3.870000, 71.587, 41.1549
3.950000, 72.020, 39.2365
4.000000, 72.283, 38.0571
4.060000, 72.591, 36.6571
4.120000, 72.890, 35.2679
4.180000, 73.181, 33.8922
4.250000, 73.509, 32.3116
4.310000, 73.782, 30.9828
4.370000, 74.048, 29.6798
4.440000, 74.349, 28.1855
4.500000, 74.599, 26.9183
4.550000, 74.802, 25.8735
4.620000, 75.077, 24.4354
4.680000, 75.306, 23.2312
4.750000, 75.566, 21.8633
4.820000, 75.818, 20.5275
4.870000, 75.993, 19.5870
4.940000, 76.230, 18.2921
5.000000, 76.428, 17.2075
5.080000, 76.684, 15.8060
5.150000, 76.903, 14.6230
5.220000, 77.115, 13.4720
5.300000, 77.350, 12.1909
5.380000, 77.578, 10.9504
5.450000, 77.774, 9.9027
5.520000, 77.966, 8.8916
5.600000, 78.181, 7.7755
5.700000, 78.444, 6.4318
5.800000, 78.701, 5.1411
5.900000, 78.955, 3.9033
6.000000, 79.206, 2.7166
6.080000, 79.404, 1.7970
6.150000, 79.576, 1.0084
6.220000, 79.748, 0.2321
6.300000, 79.943, -0.6395
6.400000, 80.185, -1.7051
6.500000, 80.424, -2.7541
6.600000, 80.661, -3.7973
6.700000, 80.896, -4.8356
6.800000, 81.128, -5.8669
6.900000, 81.356, -6.8946
7.000000, 81.578, -7.9231
7.100000, 81.797, -8.9531
7.200000, 82.010, -9.9790
7.300000, 82.217, -10.9960
7.400000, 82.417, -12.0054
7.500000, 82.611, -13.0078
7.620000, 82.837, -14.1895
7.750000, 83.071, -15.4316
7.880000, 83.295, -16.6385
8.000000, 83.495, -17.7128
8.120000, 83.689, -18.7397
8.250000, 83.893, -19.8032
8.380000, 84.093, -20.8181
8.500000, 84.276, -21.7098
8.620000, 84.458, -22.5621
8.750000, 84.653, -23.4531
8.850000, 84.804, -24.1201
9.000000, 85.032, -25.0938
9.120000, 85.214, -25.8628
9.250000, 85.411, -26.6959
9.380000, 85.607, -27.5293
9.500000, 85.787, -28.3048
9.620000, 85.964, -29.0908
9.750000, 86.151, -29.9509
9.880000, 86.325, -30.8150
10.000000, 86.471, -31.6157
10.150000, 86.634, -32.6135
10.300000, 86.781, -33.5911
10.440000, 86.906, -34.4817
10.600000, 87.040, -35.4594
10.750000, 87.162, -36.3257
10.900000, 87.280, -37.1431
11.060000, 87.403, -37.9545
11.200000, 87.510, -38.6152
11.380000, 87.648, -39.4088
11.500000, 87.741, -39.9066
11.720000, 87.919, -40.7767
11.800000, 87.986, -41.0853
12.060000, 88.214, -42.0772
12.200000, 88.341, -42.6171
12.410000, 88.533, -43.4403
12.500000, 88.614, -43.7993
12.650000, 88.748, -44.4048
12.800000, 88.879, -45.0149
13.150000, 89.171, -46.4326
13.200000, 89.212, -46.6316
13.400000, 89.372, -47.4136
13.600000, 89.530, -48.1696
13.800000, 89.687, -48.8981
14.000000, 89.843, -49.6045
14.300000, 90.076, -50.6364
14.500000, 90.230, -51.3170
14.750000, 90.419, -52.1658
15.000000, 90.606, -53.0101
15.250000, 90.790, -53.8380
15.500000, 90.969, -54.6322
15.750000, 91.144, -55.3794
16.000000, 91.318, -56.0732
16.250000, 91.494, -56.7228
16.500000, 91.675, -57.3472
16.750000, 91.862, -57.9719
17.000000, 92.055, -58.6201
17.250000, 92.249, -59.3041
17.500000, 92.439, -60.0239
17.750000, 92.622, -60.7662
18.000000, 92.798, -61.5124
18.250000, 92.966, -62.2446
18.500000, 93.129, -62.9523
18.750000, 93.291, -63.6359
19.000000, 93.452, -64.3033
19.250000, 93.614, -64.9670
19.500000, 93.774, -65.6349
19.750000, 93.929, -66.3066
20.000000, 94.079, -66.9727
20.299999, 94.250, -67.7422
20.600000, 94.417, -68.4583
20.900000, 94.584, -69.1168
21.200001, 94.757, -69.7413
21.400000, 94.877, -70.1602
21.799999, 95.123, -71.0605
22.000000, 95.246, -71.5567
22.400000, 95.479, -72.6294
22.700001, 95.638, -73.4568
23.000000, 95.785, -74.2485
23.299999, 95.925, -74.9684
23.600000, 96.067, -75.6111
24.000000, 96.271, -76.4009
24.299999, 96.439, -77.0064
24.700001, 96.673, -77.9115
25.000000, 96.847, -78.6821
25.400000, 97.065, -79.8033
25.799999, 97.263, -80.9628
26.200001, 97.442, -82.0882
26.500000, 97.568, -82.8840
26.900000, 97.734, -83.8751
27.200001, 97.859, -84.5771
27.600000, 98.029, -85.4906
28.000000, 98.203, -86.4202
28.500000, 98.414, -87.6482
29.000000, 98.605, -88.9224
29.500000, 98.771, -90.1388
30.000000, 98.925, -91.2198
30.400000, 99.051, -92.0136
30.700001, 99.150, -92.6091
31.100000, 99.282, -93.4423
31.500000, 99.403, -94.3123
32.000000, 99.530, -95.3429
32.500000, 99.644, -96.1635
33.000000, 99.777, -96.7444
33.500000, 99.954, -97.2363
34.000000, 100.173, -97.8477
34.500000, 100.412, -98.7008
35.000000, 100.646, -99.7928
35.500000, 100.860, -101.0475
36.000000, 101.048, -102.3701
36.500000, 101.214, -103.6771
37.000000, 101.366, -104.9152
37.500000, 101.514, -106.0739
38.200001, 101.731, -107.6271
38.700001, 101.895, -108.7677
39.500000, 102.163, -110.7892
40.000000, 102.319, -112.2024
40.599998, 102.479, -113.9971
41.200001, 102.606, -115.7901
41.799999, 102.706, -117.4800
42.500000, 102.812, -119.2794
43.099998, 102.902, -120.7164
43.700001, 102.992, -122.1077
44.400002, 103.090, -123.6847
45.000000, 103.168, -124.9748
45.500000, 103.234, -126.0123
46.200001, 103.326, -127.4631
46.799999, 103.399, -128.7312
47.500000, 103.471, -130.1918
48.200001, 103.536, -131.5821
48.700001, 103.581, -132.5350
49.400002, 103.646, -133.8062
50.000000, 103.708, -134.8248
50.799999, 103.814, -136.1696
51.500000, 103.913, -137.4261
52.200001, 104.003, -138.6917
53.000000, 104.105, -140.0767
53.799999, 104.207, -141.4707
54.500000, 104.289, -142.6716
55.200001, 104.379, -143.8933
56.000000, 104.474, -145.4910
57.000000, 104.537, -147.4047
58.000000, 104.673, -149.1213
59.000000, 104.841, -151.8130
60.000000, 104.861, -154.8137
60.799999, 104.845, -156.8198
61.500000, 104.842, -158.4904
62.200001, 104.827, -160.1279
63.000000, 104.794, -161.8372
64.000000, 104.751, -163.7272
65.000000, 104.716, -165.4131
66.000000, 104.696, -167.0166
67.000000, 104.686, -168.6285
68.000000, 104.689, -170.2711
69.000000, 104.708, -172.0442
70.000000, 104.734, -173.9777
71.000000, 104.764, -176.1228
72.000000, 104.777, -178.5248
73.000000, 104.758, 178.9093
74.000000, 104.705, 176.1974
75.000000, 104.597, 173.4158
76.199997, 104.408, 170.2422
77.500000, 104.158, 167.0359
78.800003, 103.871, 164.1751
80.000000, 103.597, 161.8526
81.199997, 103.321, 159.7939
82.500000, 103.032, 157.8463
83.800003, 102.760, 156.0569
85.000000, 102.518, 154.5049
86.199997, 102.284, 153.0441
87.500000, 102.039, 151.5493
88.500000, 101.857, 150.4550
90.000000, 101.605, 148.7952
91.199997, 101.401, 147.2640
92.500000, 101.145, 145.5444
93.800003, 100.877, 143.8048
95.000000, 100.615, 142.0204
96.199997, 100.321, 140.0547
97.500000, 99.946, 137.7972
98.800003, 99.499, 135.5726
100.000000, 99.013, 133.6600
101.500000, 98.282, 131.6769
103.000000, 97.398, 130.4392
104.400002, 96.447, 130.3215
106.000000, 95.286, 131.8818
107.500000, 94.266, 135.3813
109.000000, 93.484, 140.6305
110.599998, 92.991, 147.1697
112.000000, 92.799, 152.7252
113.800003, 92.709, 158.4710
115.000000, 92.665, 161.2773
117.199997, 92.611, 164.4562
118.000000, 92.577, 165.0783
120.599998, 92.755, 170.9641
122.000000, 93.231, 173.1311
124.099998, 93.743, 175.0363
125.000000, 93.909, 175.9490
126.500000, 94.147, 177.1921
128.000000, 94.336, 178.0917
131.500000, 94.739, 179.1554
132.000000, 94.781, 179.2066
134.000000, 94.894, 179.4019
136.000000, 94.963, 179.6012
138.000000, 95.064, 179.6588
140.000000, 95.206, 179.4103
143.000000, 95.369, 179.3045
145.000000, 95.448, 179.2988
147.500000, 95.520, 178.7189
150.000000, 95.610, 177.8230
152.500000, 95.677, 177.0726
155.000000, 95.642, 176.3339
157.500000, 95.569, 175.1071
160.000000, 95.626, 173.2714
162.500000, 95.610, 171.3154
165.000000, 95.372, 171.4794
167.500000, 95.144, 171.8528
170.000000, 94.899, 171.1979
172.500000, 94.683, 170.8136
175.000000, 94.490, 170.3206
177.500000, 94.215, 169.6094
180.000000, 93.952, 169.1398
182.500000, 93.706, 168.9916
185.000000, 93.420, 169.3217
187.500000, 93.120, 169.6722
190.000000, 92.823, 169.8820
192.500000, 92.530, 170.2036
195.000000, 92.242, 170.6865
197.500000, 91.974, 171.3307
200.000000, 91.721, 172.0789
203.000000, 91.405, 173.0352
206.000000, 91.086, 173.8654
209.000000, 90.776, 174.7181
212.000000, 90.468, 175.9111
214.000000, 90.258, 176.8458
218.000000, 89.861, 178.9326
220.000000, 89.691, 179.9694
224.000000, 89.387, -178.0837
227.000000, 89.152, -176.7466
230.000000, 88.898, -175.3013
233.000000, 88.626, -173.8643
236.000000, 88.351, -172.5017
240.000000, 87.990, -170.6776
243.000000, 87.697, -168.7012
247.000000, 87.340, -165.9584
250.000000, 87.114, -164.0329
254.000000, 86.858, -161.5241
258.000000, 86.593, -158.9747
262.000000, 86.290, -156.3694
265.000000, 86.050, -154.4717
269.000000, 85.753, -152.0093
272.000000, 85.573, -149.9872
276.000000, 85.343, -146.9858
280.000000, 85.078, -143.9010
285.000000, 84.719, -140.1215
290.000000, 84.380, -136.0300
295.000000, 84.077, -131.7005
300.000000, 83.794, -127.0271
304.000000, 83.607, -123.0972
307.000000, 83.492, -119.9451
311.000000, 83.389, -115.4160
315.000000, 83.388, -110.6580
320.000000, 83.573, -105.1113
325.000000, 83.870, -100.9915
330.000000, 84.094, -98.3267
335.000000, 84.158, -96.1030
340.000000, 84.113, -93.5083
345.000000, 84.043, -90.3804
350.000000, 84.004, -86.9821
355.000000, 84.016, -83.6965
360.000000, 84.062, -80.5313
365.000000, 84.134, -77.1771
370.000000, 84.213, -74.1903
375.000000, 84.263, -71.6268
382.000000, 84.258, -68.1074
387.000000, 84.227, -65.4193
395.000000, 84.181, -60.8311
400.000000, 84.158, -57.8901
406.000000, 84.141, -54.4058
412.000000, 84.144, -50.9626
418.000000, 84.155, -47.4979
425.000000, 84.160, -43.4442
431.000000, 84.160, -40.0951
437.000000, 84.164, -36.7283
444.000000, 84.164, -32.7340
450.000000, 84.169, -29.2053
455.000000, 84.183, -26.2830
462.000000, 84.232, -22.3229
468.000000, 84.306, -19.0906
475.000000, 84.385, -15.5946
482.000000, 84.427, -12.1760
487.000000, 84.439, -9.6738
494.000000, 84.439, -6.1464
500.000000, 84.432, -3.1055
508.000000, 84.421, 1.0441
515.000000, 84.409, 4.6794
522.000000, 84.400, 8.2966
530.000000, 84.385, 12.4531
538.000000, 84.370, 16.6312
545.000000, 84.372, 20.2949
552.000000, 84.369, 23.9525
560.000000, 84.349, 28.1707
570.000000, 84.330, 33.5485
580.000000, 84.328, 38.9720
590.000000, 84.353, 44.4326
600.000000, 84.392, 49.6238
608.000000, 84.388, 53.7150
615.000000, 84.361, 57.2757
622.000000, 84.335, 60.8969
630.000000, 84.315, 65.2012
640.000000, 84.289, 70.7558
650.000000, 84.268, 76.1667
660.000000, 84.248, 81.6952
670.000000, 84.222, 87.3322
680.000000, 84.193, 92.8354
690.000000, 84.096, 98.5640
700.000000, 84.029, 104.3562
710.000000, 84.082, 109.7473
720.000000, 84.108, 115.3103
730.000000, 84.107, 121.0829
740.000000, 84.105, 126.9936
750.000000, 84.116, 132.9613
762.000000, 84.148, 140.1105
775.000000, 84.205, 147.9134
788.000000, 84.256, 155.6483
800.000000, 84.323, 162.7156
812.000000, 84.425, 169.7949
825.000000, 84.554, 177.4618
838.000000, 84.695, -174.8886
850.000000, 84.839, -167.9272
862.000000, 84.975, -161.1684
875.000000, 85.112, -153.9059
885.000000, 85.225, -148.3087
900.000000, 85.408, -139.9531
912.000000, 85.556, -133.3736
925.000000, 85.708, -126.3139
938.000000, 85.872, -119.1923
950.000000, 86.031, -112.7109
962.000000, 86.183, -106.3286
975.000000, 86.333, -99.4623
988.000000, 86.484, -92.6784
1000.000000, 86.620, -86.4405
1015.000000, 86.783, -78.6573
1030.000000, 86.940, -70.9319
1044.000000, 87.082, -63.7549
1060.000000, 87.241, -55.5723
1075.000000, 87.384, -47.8802
1090.000000, 87.528, -40.2279
1106.000000, 87.692, -32.0962
1120.000000, 87.833, -25.0199
1138.000000, 88.003, -15.9757
1150.000000, 88.112, -9.9794
1172.000000, 88.302, 0.9107
1180.000000, 88.359, 4.8377
1206.000000, 88.451, 17.7207
1220.000000, 88.468, 25.0257
1241.000000, 88.546, 36.5215
1250.000000, 88.611, 41.4849
1265.000000, 88.743, 49.6707
1280.000000, 88.887, 57.7317
1315.000000, 89.210, 76.1795
1320.000000, 89.253, 78.7977
1340.000000, 89.416, 89.2398
1360.000000, 89.548, 99.7023
1380.000000, 89.676, 110.2248
1400.000000, 89.824, 120.7771
1430.000000, 90.055, 136.5146
1450.000000, 90.199, 146.9297
1475.000000, 90.362, 159.9672
1500.000000, 90.506, 173.0794
1525.000000, 90.638, -173.6351
1550.000000, 90.767, -160.2724
1575.000000, 90.888, -146.8945
1600.000000, 90.998, -133.4627
1625.000000, 91.082, -119.8862
1650.000000, 91.144, -106.0865
1675.000000, 91.183, -92.0534
1700.000000, 91.201, -77.6297
1725.000000, 91.203, -62.5565
1750.000000, 91.213, -46.4614
1775.000000, 91.339, -28.7023
1800.000000, 91.866, -8.8937
1825.000000, 93.157, 10.8792
1850.000000, 94.969, 25.2372
1875.000000, 96.377, 32.6750
1900.000000, 96.950, 38.1101
1925.000000, 96.971, 45.4027
1950.000000, 96.809, 55.3104
1975.000000, 96.700, 67.1974
2000.000000, 96.735, 79.9796
2030.000000, 96.915, 95.2344
2060.000000, 97.118, 110.0600
2090.000000, 97.292, 124.8050
2120.000000, 97.454, 139.7792
2140.000000, 97.561, 149.9059
2180.000000, 97.779, 170.3732
2200.000000, 97.895, -179.3486
2240.000000, 98.147, -158.7145
2270.000000, 98.355, -143.1884
2300.000000, 98.578, -127.7089
2330.000000, 98.807, -112.3666
2360.000000, 99.037, -97.1293
2400.000000, 99.345, -76.8627
2430.000000, 99.572, -61.6982
2470.000000, 99.869, -41.5843
2500.000000, 100.083, -26.5782
2540.000000, 100.356, -6.6372
2580.000000, 100.610, 13.2491
2620.000000, 100.830, 33.0441
2650.000000, 100.971, 47.8567
2690.000000, 101.132, 67.6287
2720.000000, 101.233, 82.4816
2760.000000, 101.343, 102.3738
2800.000000, 101.433, 122.4841
2850.000000, 101.549, 148.0154
2900.000000, 101.702, 173.7244
2950.000000, 101.895, -160.6761
3000.000000, 102.104, -135.4619
3040.000000, 102.247, -115.6287
3070.000000, 102.326, -100.8425
3110.000000, 102.408, -81.0742
3150.000000, 102.491, -61.3253
3200.000000, 102.581, -37.0189
3250.000000, 102.592, -13.2247
3300.000000, 102.481, 10.3624
3350.000000, 102.249, 34.1896
3400.000000, 101.936, 58.2402
3450.000000, 101.515, 82.2612
3500.000000, 100.897, 106.4622
3550.000000, 100.026, 131.7188
3600.000000, 98.954, 159.2424
3650.000000, 97.833, -170.0298
3700.000000, 96.975, -134.4037
3750.000000, 97.154, -94.9894
3820.000000, 98.778, -50.1876
3870.000000, 99.618, -25.8179
3950.000000, 99.771, 10.6877
4000.000000, 99.355, 35.2920
4060.000000, 98.728, 67.6554
4120.000000, 98.200, 101.9296
4180.000000, 97.788, 137.0685
4250.000000, 97.434, 178.7941
4310.000000, 97.288, -145.6562
4370.000000, 97.256, -113.3593
4440.000000, 97.190, -83.2858
4500.000000, 97.159, -61.4647
4550.000000, 97.128, -44.0966
4620.000000, 96.976, -20.3372
4680.000000, 96.706, -0.0796
4750.000000, 96.236, 24.0309
4820.000000, 95.643, 49.0470
4870.000000, 95.191, 67.6932
4940.000000, 94.622, 95.0466
5000.000000, 94.293, 119.4368
5080.000000, 94.221, 152.4526
5150.000000, 94.525, -179.4624
5220.000000, 95.010, -153.0901
5300.000000, 95.612, -124.9580
5380.000000, 96.178, -98.8018
5450.000000, 96.565, -77.4058
5520.000000, 96.764, -57.0884
5600.000000, 96.685, -34.3245
5700.000000, 96.149, -4.7659
5800.000000, 95.448, 27.2588
5900.000000, 94.896, 60.8022
6000.000000, 94.495, 94.6812
6080.000000, 94.245, 121.9260
6150.000000, 94.087, 145.9551
6220.000000, 94.009, 170.1064
6300.000000, 94.047, -162.3750
6400.000000, 94.288, -128.7502
6500.000000, 94.639, -96.6479
6600.000000, 94.967, -66.0713
6700.000000, 95.189, -36.7322
6800.000000, 95.279, -8.1272
6900.000000, 95.271, 20.3359
7000.000000, 95.175, 48.8110
7100.000000, 94.995, 77.4087
7200.000000, 94.769, 106.3921
7300.000000, 94.552, 135.8411
7400.000000, 94.382, 165.5598
7500.000000, 94.280, -164.6575
7620.000000, 94.307, -129.1201
7750.000000, 94.544, -91.6353
7880.000000, 94.750, -55.8557
8000.000000, 94.750, -24.0940
8120.000000, 94.533, 7.3594
8250.000000, 94.100, 41.8647
8380.000000, 93.575, 77.0176
8500.000000, 93.152, 109.9402
8620.000000, 92.854, 142.7205
8750.000000, 92.594, 177.4033
8850.000000, 92.357, -156.2778
9000.000000, 91.936, -116.8708
9120.000000, 91.609, -85.6470
9250.000000, 91.214, -52.6267
9380.000000, 90.609, -20.1360
9500.000000, 89.773, 10.2959
9620.000000, 88.669, 42.0166
9750.000000, 87.233, 79.0483
9880.000000, 85.878, 120.2766
10000.000000, 85.400, 161.3604
10150.000000, 86.288, -148.6577
10300.000000, 87.837, -104.4346
10440.000000, 89.168, -67.4653
10600.000000, 90.528, -28.2822
10750.000000, 91.839, 6.0896
10900.000000, 93.189, 38.0195
11060.000000, 94.353, 68.7073
11200.000000, 94.808, 93.4819
11380.000000, 94.519, 125.2290
11500.000000, 94.001, 147.4072
11720.000000, 93.032, -170.3894
11800.000000, 92.735, -154.9729
12060.000000, 91.570, -104.5430
12200.000000, 90.538, -74.9175
12410.000000, 88.260, -25.2197
12500.000000, 87.058, -1.8438
12650.000000, 85.047, 40.4248
12800.000000, 83.678, 85.9185
13150.000000, 84.425, -171.4570
13200.000000, 84.788, -158.1177
13400.000000, 86.294, -108.6479
13600.000000, 87.455, -64.2642
13800.000000, 88.201, -23.1904
14000.000000, 88.559, 15.0991
14300.000000, 88.204, 70.0122
14500.000000, 87.563, 106.6196
14750.000000, 86.961, 151.3516
15000.000000, 86.888, -167.8037
15250.000000, 86.996, -133.3545
15500.000000, 86.771, -105.2021
15750.000000, 85.850, -81.2373
16000.000000, 83.390, -54.9878
16250.000000, 79.726, -18.6826
16500.000000, 77.675, 25.2988
16750.000000, 77.357, 70.2241
17000.000000, 77.306, 115.6084
17250.000000, 77.530, 159.9912
17500.000000, 76.972, -158.1748
17750.000000, 74.170, -111.3853
18000.000000, 69.445, -47.4492
18250.000000, 67.436, 26.1807
18500.000000, 69.318, 90.6177
18750.000000, 70.850, 147.0747
19000.000000, 71.515, -159.4023
19250.000000, 71.631, -105.9692
19500.000000, 71.632, -52.6763
19750.000000, 71.811, -0.5415
20000.000000, 71.837, 51.8374
20300.000000, 71.056, 118.5718
20600.000000, 68.932, -173.8477
20900.000000, 65.397, -118.7461
21200.000000, 60.936, -74.1851
21400.000000, 57.503, -24.8540
21800.000000, 49.138, 110.9404
22000.000000, 44.243, -171.1030
22400.000000, 35.184, 3.9468
22700.000000, 31.188, 159.7085
23000.000000, 27.180, -48.5693
23300.000000, 22.317, 61.4590
23600.000000, 18.559, 170.8784
24000.000000, 17.009, 0.5908
