* Measurement data measured by REW V5.31.3
* Source: Headset (DS by VECLAN.COM), MICROPHONE (Master Volume), L, volume: 0.720. Timing signal peak level -12.7 dBFS, measurement signal peak level -8.8 dBFS
* Format: 2M Log Swept Sine, 1 sweep at -14.4 dBFS using an acoustic timing reference
* Dated: Nov 5, 2024 11:10:15 PM
* REW Settings:
*  C-weighting compensation: Off
*  Target level: 85.0 dB
* Note: ; Delay -0.0822 ms (-28 mm, -1.11 in) using estimated IR delay relative to Acoustic reference played from HEADPHONE R with no timing offset Clock adjustment: -150.7 ppm
* Measurement: Rock Ambient R3
* Smoothing: 1/24 octave
* Frequency Step: 1/48 octave
* Start Frequency: 1.000 Hz
*
* Freq(Hz), SPL(dB), Phase(degrees)
1.000000, 38.026, 120.2868
1.015000, 38.308, 119.8838
1.030000, 38.589, 119.4720
1.044000, 38.850, 119.0792
1.060000, 39.146, 118.6204
1.075000, 39.422, 118.1807
1.090000, 39.696, 117.7333
1.106000, 39.986, 117.2577
1.120000, 40.239, 116.8583
1.138000, 40.561, 116.3750
1.150000, 40.775, 116.0694
1.172000, 41.164, 115.5361
1.180000, 41.304, 115.3491
1.206000, 41.758, 114.7589
1.220000, 42.000, 114.4488
1.241000, 42.361, 113.9883
1.250000, 42.514, 113.7915
1.265000, 42.769, 113.4628
1.280000, 43.023, 113.1319
1.315000, 43.609, 112.3442
1.320000, 43.692, 112.2292
1.340000, 44.023, 111.7624
1.360000, 44.351, 111.2827
1.380000, 44.677, 110.7891
1.400000, 45.001, 110.2806
1.430000, 45.483, 109.4892
1.450000, 45.801, 108.9437
1.475000, 46.196, 108.2575
1.500000, 46.587, 107.6027
1.525000, 46.974, 106.9881
1.550000, 47.357, 106.4037
1.575000, 47.736, 105.8388
1.600000, 48.111, 105.2846
1.625000, 48.483, 104.7334
1.650000, 48.851, 104.1788
1.675000, 49.215, 103.6156
1.700000, 49.576, 103.0394
1.725000, 49.934, 102.4470
1.750000, 50.289, 101.8355
1.775000, 50.641, 101.2031
1.800000, 50.989, 100.5487
1.825000, 51.335, 99.8761
1.850000, 51.678, 99.2041
1.875000, 52.018, 98.5549
1.900000, 52.354, 97.9305
1.925000, 52.686, 97.3246
1.950000, 53.016, 96.7305
1.975000, 53.342, 96.1422
2.000000, 53.665, 95.5546
2.030000, 54.048, 94.8441
2.060000, 54.427, 94.1217
2.090000, 54.802, 93.3822
2.120000, 55.173, 92.6212
2.140000, 55.418, 92.1003
2.180000, 55.903, 91.0254
2.200000, 56.143, 90.4765
2.240000, 56.618, 89.3925
2.270000, 56.969, 88.6047
2.300000, 57.315, 87.8341
2.330000, 57.657, 87.0738
2.360000, 57.996, 86.3176
2.400000, 58.440, 85.3061
2.430000, 58.769, 84.5389
2.470000, 59.202, 83.4968
2.500000, 59.523, 82.6967
2.540000, 59.944, 81.6017
2.580000, 60.359, 80.4847
2.620000, 60.768, 79.3777
2.650000, 61.069, 78.5612
2.690000, 61.466, 77.4864
2.720000, 61.759, 76.6860
2.760000, 62.143, 75.6204
2.800000, 62.522, 74.5499
2.850000, 62.986, 73.1951
2.900000, 63.441, 71.8128
2.950000, 63.887, 70.4063
3.000000, 64.323, 69.0033
3.040000, 64.665, 67.8919
3.070000, 64.917, 67.0639
3.110000, 65.248, 65.9651
3.150000, 65.573, 64.8694
3.200000, 65.971, 63.4990
3.250000, 66.361, 62.1217
3.300000, 66.742, 60.7339
3.350000, 67.114, 59.3414
3.400000, 67.477, 57.9541
3.450000, 67.831, 56.5762
3.500000, 68.177, 55.2093
3.550000, 68.514, 53.8531
3.600000, 68.843, 52.5060
3.650000, 69.165, 51.1651
3.700000, 69.479, 49.8260
3.750000, 69.784, 48.4882
3.820000, 70.198, 46.6273
3.870000, 70.484, 45.3143
3.950000, 70.928, 43.2515
4.000000, 71.196, 41.9879
4.060000, 71.509, 40.4907
4.120000, 71.811, 39.0028
4.180000, 72.104, 37.5279
4.250000, 72.432, 35.8378
4.310000, 72.705, 34.4260
4.370000, 72.970, 33.0536
4.440000, 73.269, 31.4934
4.500000, 73.515, 30.1771
4.550000, 73.714, 29.0961
4.620000, 73.985, 27.6171
4.680000, 74.210, 26.3899
4.750000, 74.466, 25.0126
4.820000, 74.714, 23.6862
4.870000, 74.885, 22.7619
4.940000, 75.119, 21.5003
5.000000, 75.315, 20.4529
5.080000, 75.570, 19.1127
5.150000, 75.789, 17.9954
5.220000, 76.004, 16.9242
5.300000, 76.244, 15.7479
5.380000, 76.479, 14.6185
5.450000, 76.684, 13.6671
5.520000, 76.887, 12.7507
5.600000, 77.118, 11.7468
5.700000, 77.403, 10.5447
5.800000, 77.686, 9.3815
5.900000, 77.968, 8.2462
6.000000, 78.250, 7.1444
6.080000, 78.475, 6.2804
6.150000, 78.670, 5.5282
6.220000, 78.863, 4.7742
6.300000, 79.083, 3.9112
6.400000, 79.355, 2.8354
6.500000, 79.623, 1.7596
6.600000, 79.884, 0.6766
6.700000, 80.139, -0.4169
6.800000, 80.387, -1.5142
6.900000, 80.627, -2.6062
7.000000, 80.859, -3.6915
7.100000, 81.081, -4.7745
7.200000, 81.295, -5.8455
7.300000, 81.501, -6.8897
7.400000, 81.698, -7.9054
7.500000, 81.886, -8.8973
7.620000, 82.103, -10.0431
7.750000, 82.329, -11.2129
7.880000, 82.545, -12.3149
8.000000, 82.738, -13.2733
8.120000, 82.929, -14.1707
8.250000, 83.133, -15.0793
8.380000, 83.336, -15.9376
8.500000, 83.523, -16.6926
8.620000, 83.712, -17.4149
8.750000, 83.917, -18.1783
8.850000, 84.075, -18.7605
9.000000, 84.312, -19.6265
9.120000, 84.501, -20.3203
9.250000, 84.702, -21.0807
9.380000, 84.900, -21.8473
9.500000, 85.079, -22.5559
9.620000, 85.253, -23.2648
9.750000, 85.435, -24.0295
9.880000, 85.604, -24.7790
10.000000, 85.744, -25.4531
10.150000, 85.903, -26.2695
10.300000, 86.051, -27.0463
10.440000, 86.181, -27.7338
10.600000, 86.327, -28.4813
10.750000, 86.467, -29.1472
10.900000, 86.610, -29.7883
11.060000, 86.764, -30.4601
11.200000, 86.901, -31.0426
11.380000, 87.076, -31.7979
11.500000, 87.191, -32.3099
11.720000, 87.401, -33.2621
11.800000, 87.477, -33.6121
12.060000, 87.716, -34.7462
12.200000, 87.840, -35.3407
12.410000, 88.022, -36.1958
12.500000, 88.098, -36.5426
12.650000, 88.222, -37.0928
12.800000, 88.347, -37.6095
13.150000, 88.645, -38.7048
13.200000, 88.690, -38.8546
13.400000, 88.874, -39.4505
13.600000, 89.065, -40.0664
13.800000, 89.261, -40.7227
14.000000, 89.455, -41.4285
14.300000, 89.733, -42.5657
14.500000, 89.904, -43.3470
14.750000, 90.102, -44.2978
15.000000, 90.287, -45.1747
15.250000, 90.469, -45.9427
15.500000, 90.654, -46.6045
15.750000, 90.848, -47.1905
16.000000, 91.054, -47.7514
16.250000, 91.269, -48.3380
16.500000, 91.487, -48.9789
16.750000, 91.702, -49.6773
17.000000, 91.908, -50.4065
17.250000, 92.103, -51.1283
17.500000, 92.290, -51.8052
17.750000, 92.473, -52.4164
18.000000, 92.658, -52.9674
18.250000, 92.852, -53.4846
18.500000, 93.054, -54.0094
18.750000, 93.263, -54.5787
19.000000, 93.475, -55.2150
19.250000, 93.681, -55.9186
19.500000, 93.878, -56.6672
19.750000, 94.061, -57.4282
20.000000, 94.232, -58.1653
20.299999, 94.427, -58.9817
20.600000, 94.617, -59.7092
20.900000, 94.812, -60.3638
21.200001, 95.014, -60.9847
21.400000, 95.154, -61.4017
21.799999, 95.438, -62.2846
22.000000, 95.581, -62.7586
22.400000, 95.860, -63.7644
22.700001, 96.063, -64.5500
23.000000, 96.261, -65.3443
23.299999, 96.454, -66.1381
23.600000, 96.644, -66.9313
24.000000, 96.896, -67.9982
24.299999, 97.082, -68.8136
24.700001, 97.324, -69.9228
25.000000, 97.498, -70.7620
25.400000, 97.722, -71.8687
25.799999, 97.939, -72.9416
26.200001, 98.155, -73.9799
26.500000, 98.317, -74.7497
26.900000, 98.536, -75.7915
27.200001, 98.700, -76.5990
27.600000, 98.914, -77.7159
28.000000, 99.119, -78.8660
28.500000, 99.361, -80.3175
29.000000, 99.590, -81.7579
29.500000, 99.808, -83.1810
30.000000, 100.015, -84.5872
30.400000, 100.173, -85.6983
30.700001, 100.287, -86.5237
31.100000, 100.434, -87.6152
31.500000, 100.572, -88.6935
32.000000, 100.729, -89.9909
32.500000, 100.868, -91.1515
33.000000, 101.002, -92.0745
33.500000, 101.158, -92.7235
34.000000, 101.365, -93.1980
34.500000, 101.639, -93.7247
35.000000, 101.966, -94.5562
35.500000, 102.311, -95.8386
36.000000, 102.636, -97.5558
36.500000, 102.916, -99.5685
37.000000, 103.144, -101.7049
37.500000, 103.326, -103.8290
38.200001, 103.528, -106.6534
38.700001, 103.648, -108.5371
39.500000, 103.817, -111.3315
40.000000, 103.916, -112.9617
40.599998, 104.035, -114.8283
41.200001, 104.157, -116.6336
41.799999, 104.283, -118.4260
42.500000, 104.428, -120.5431
43.099998, 104.546, -122.3636
43.700001, 104.657, -124.1581
44.400002, 104.782, -126.2202
45.000000, 104.884, -127.9754
45.500000, 104.963, -129.4181
46.200001, 105.073, -131.3856
46.799999, 105.172, -133.0575
47.500000, 105.297, -135.0975
48.200001, 105.413, -137.3077
48.700001, 105.480, -138.9735
49.400002, 105.545, -141.3387
50.000000, 105.579, -143.3182
50.799999, 105.612, -145.8600
51.500000, 105.639, -148.0612
52.200001, 105.655, -150.2869
53.000000, 105.651, -152.7974
53.799999, 105.629, -155.1765
54.500000, 105.607, -157.1653
55.200001, 105.582, -159.1416
56.000000, 105.534, -161.3745
57.000000, 105.447, -163.9820
58.000000, 105.354, -166.4581
59.000000, 105.241, -168.8351
60.000000, 105.135, -171.0591
60.799999, 105.061, -172.9140
61.500000, 104.981, -174.5880
62.200001, 104.890, -176.2042
63.000000, 104.787, -177.9807
64.000000, 104.654, 179.8047
65.000000, 104.505, 177.6029
66.000000, 104.327, 175.4302
67.000000, 104.104, 173.3828
68.000000, 103.840, 171.6069
69.000000, 103.555, 170.2257
70.000000, 103.284, 169.2200
71.000000, 103.042, 168.4452
72.000000, 102.834, 167.8310
73.000000, 102.664, 167.2956
74.000000, 102.521, 166.7719
75.000000, 102.400, 166.2733
76.199997, 102.281, 165.6595
77.500000, 102.169, 164.8868
78.800003, 102.063, 164.0766
80.000000, 101.979, 163.2827
81.199997, 101.905, 162.4384
82.500000, 101.842, 161.5524
83.800003, 101.810, 160.6427
85.000000, 101.798, 159.6609
86.199997, 101.786, 158.5275
87.500000, 101.767, 157.1242
88.500000, 101.745, 155.8657
90.000000, 101.683, 153.7696
91.199997, 101.641, 152.0124
92.500000, 101.599, 149.7616
93.800003, 101.518, 147.2531
95.000000, 101.399, 144.8865
96.199997, 101.242, 142.4339
97.500000, 101.002, 139.6091
98.800003, 100.681, 136.7368
100.000000, 100.315, 134.0831
101.500000, 99.766, 130.9529
103.000000, 99.126, 128.1587
104.400002, 98.423, 126.0737
106.000000, 97.499, 124.7259
107.500000, 96.547, 124.6981
109.000000, 95.583, 126.0164
110.599998, 94.630, 128.9088
112.000000, 93.941, 132.6186
113.800003, 93.323, 138.3266
115.000000, 93.053, 142.1308
117.199997, 92.678, 148.1765
118.000000, 92.550, 150.1481
120.599998, 92.406, 156.7004
122.000000, 92.529, 158.6338
124.099998, 92.672, 161.4150
125.000000, 92.765, 162.8762
126.500000, 92.924, 165.0791
128.000000, 93.025, 167.1547
131.500000, 93.218, 171.3792
132.000000, 93.254, 171.9065
134.000000, 93.442, 174.0385
136.000000, 93.692, 176.2346
138.000000, 93.978, 178.1271
140.000000, 94.239, 179.1592
143.000000, 94.581, -179.9940
145.000000, 94.813, -179.5056
147.500000, 95.108, -179.0776
150.000000, 95.393, -179.0955
152.500000, 95.676, -179.1589
155.000000, 95.956, -179.1990
157.500000, 96.181, -179.7187
160.000000, 96.379, 179.2354
162.500000, 96.557, 177.5583
165.000000, 96.642, 176.8408
167.500000, 96.748, 176.5963
170.000000, 96.805, 175.8468
172.500000, 96.844, 174.7367
175.000000, 96.895, 173.4384
177.500000, 96.930, 172.3765
180.000000, 96.934, 171.4927
182.500000, 96.879, 170.6996
185.000000, 96.813, 170.1415
187.500000, 96.770, 169.4944
190.000000, 96.721, 168.6814
192.500000, 96.653, 167.8824
195.000000, 96.580, 167.2310
197.500000, 96.507, 166.7582
200.000000, 96.434, 166.3868
203.000000, 96.341, 165.8474
206.000000, 96.245, 165.2434
209.000000, 96.142, 164.6928
212.000000, 96.023, 164.2322
214.000000, 95.936, 163.9722
218.000000, 95.765, 163.5641
220.000000, 95.686, 163.4157
224.000000, 95.543, 163.1926
227.000000, 95.441, 163.0032
230.000000, 95.338, 162.7869
233.000000, 95.218, 162.5666
236.000000, 95.080, 162.2838
240.000000, 94.889, 161.8708
243.000000, 94.756, 162.0561
247.000000, 94.609, 162.5080
250.000000, 94.516, 162.7003
254.000000, 94.395, 162.8130
258.000000, 94.254, 162.7626
262.000000, 94.105, 162.6682
265.000000, 93.994, 162.6281
269.000000, 93.837, 162.5484
272.000000, 93.714, 162.5703
276.000000, 93.545, 162.7885
280.000000, 93.355, 163.0136
285.000000, 93.091, 163.3521
290.000000, 92.827, 163.8428
295.000000, 92.552, 164.5560
300.000000, 92.264, 165.5806
304.000000, 92.040, 166.6614
307.000000, 91.882, 167.7054
311.000000, 91.705, 169.4795
315.000000, 91.610, 171.6189
320.000000, 91.666, 174.1879
325.000000, 91.858, 175.5942
330.000000, 92.010, 175.5811
335.000000, 92.010, 174.9984
340.000000, 91.883, 174.6587
345.000000, 91.702, 174.8194
350.000000, 91.520, 175.3658
355.000000, 91.350, 176.0834
360.000000, 91.183, 176.9088
365.000000, 91.033, 177.9482
370.000000, 90.916, 179.1000
375.000000, 90.825, -179.9663
382.000000, 90.668, -178.9153
387.000000, 90.527, -178.0544
395.000000, 90.300, -176.3473
400.000000, 90.174, -175.1431
406.000000, 90.038, -173.6679
412.000000, 89.918, -172.1932
418.000000, 89.806, -170.6553
425.000000, 89.682, -168.8180
431.000000, 89.583, -167.2470
437.000000, 89.491, -165.6443
444.000000, 89.397, -163.7416
450.000000, 89.325, -162.1007
455.000000, 89.274, -160.6973
462.000000, 89.229, -158.6775
468.000000, 89.208, -156.9840
475.000000, 89.182, -155.1218
482.000000, 89.150, -153.4029
487.000000, 89.131, -152.1655
494.000000, 89.106, -150.4391
500.000000, 89.084, -148.9104
508.000000, 89.056, -146.7812
515.000000, 89.043, -144.8582
522.000000, 89.042, -142.9183
530.000000, 89.057, -140.6574
538.000000, 89.082, -138.3760
545.000000, 89.114, -136.4127
552.000000, 89.155, -134.4637
560.000000, 89.213, -132.2326
570.000000, 89.307, -129.3949
580.000000, 89.437, -126.5391
590.000000, 89.615, -123.7852
600.000000, 89.815, -121.2976
608.000000, 89.979, -119.4029
615.000000, 90.122, -117.8661
622.000000, 90.265, -116.3649
630.000000, 90.431, -114.6764
640.000000, 90.647, -112.6869
650.000000, 90.870, -110.7975
660.000000, 91.104, -108.9577
670.000000, 91.352, -107.2624
680.000000, 91.605, -105.8498
690.000000, 91.848, -104.4936
700.000000, 92.078, -103.1758
710.000000, 92.303, -102.0380
720.000000, 92.524, -101.0151
730.000000, 92.749, -100.0083
740.000000, 92.976, -99.1167
750.000000, 93.195, -98.2990
762.000000, 93.440, -97.4268
775.000000, 93.694, -96.5406
788.000000, 93.938, -95.7436
800.000000, 94.140, -95.1148
812.000000, 94.328, -94.5902
825.000000, 94.518, -94.0181
838.000000, 94.690, -93.4701
850.000000, 94.841, -92.9955
862.000000, 94.986, -92.5436
875.000000, 95.127, -92.0404
885.000000, 95.226, -91.6520
900.000000, 95.366, -91.1040
912.000000, 95.469, -90.7228
925.000000, 95.565, -90.3329
938.000000, 95.650, -89.8969
950.000000, 95.726, -89.4640
962.000000, 95.794, -89.0271
975.000000, 95.854, -88.5452
988.000000, 95.905, -88.0447
1000.000000, 95.946, -87.5728
1015.000000, 95.985, -86.9942
1030.000000, 96.013, -86.4116
1044.000000, 96.032, -85.8191
1060.000000, 96.045, -85.0567
1075.000000, 96.052, -84.2807
1090.000000, 96.058, -83.4580
1106.000000, 96.070, -82.5272
1120.000000, 96.083, -81.6774
1138.000000, 96.099, -80.5721
1150.000000, 96.110, -79.8341
1172.000000, 96.127, -78.5632
1180.000000, 96.125, -78.1473
1206.000000, 96.041, -76.7988
1220.000000, 95.951, -75.7242
1241.000000, 95.844, -73.4062
1250.000000, 95.825, -72.2848
1265.000000, 95.823, -70.4280
1280.000000, 95.844, -68.6498
1315.000000, 95.916, -64.7412
1320.000000, 95.927, -64.1949
1340.000000, 95.965, -62.0226
1360.000000, 95.989, -59.8106
1380.000000, 96.016, -57.5185
1400.000000, 96.067, -55.2215
1430.000000, 96.170, -51.9044
1450.000000, 96.247, -49.7417
1475.000000, 96.338, -47.0461
1500.000000, 96.422, -44.3459
1525.000000, 96.495, -41.5885
1550.000000, 96.564, -38.7269
1575.000000, 96.630, -35.7763
1600.000000, 96.694, -32.7242
1625.000000, 96.753, -29.5689
1650.000000, 96.806, -26.3175
1675.000000, 96.845, -22.9002
1700.000000, 96.857, -19.1262
1725.000000, 96.851, -14.7428
1750.000000, 96.861, -9.3333
1775.000000, 96.994, -2.2554
1800.000000, 97.542, 6.8459
1825.000000, 98.871, 15.8091
1850.000000, 100.715, 19.1601
1875.000000, 102.144, 15.4657
1900.000000, 102.740, 9.7073
1925.000000, 102.781, 5.7993
1950.000000, 102.637, 4.4924
1975.000000, 102.544, 5.1483
2000.000000, 102.596, 6.7017
2030.000000, 102.808, 8.4912
2060.000000, 103.054, 9.8385
2090.000000, 103.273, 11.0642
2120.000000, 103.479, 12.3751
2140.000000, 103.614, 13.2923
2180.000000, 103.882, 15.2190
2200.000000, 104.016, 16.2062
2240.000000, 104.294, 18.1984
2270.000000, 104.508, 19.6585
2300.000000, 104.727, 21.0404
2330.000000, 104.949, 22.3340
2360.000000, 105.169, 23.5595
2400.000000, 105.456, 25.0883
2430.000000, 105.665, 26.1224
2470.000000, 105.930, 27.3592
2500.000000, 106.117, 28.2150
2540.000000, 106.343, 29.2648
2580.000000, 106.534, 30.2131
2620.000000, 106.685, 31.1140
2650.000000, 106.770, 31.8024
2690.000000, 106.848, 32.8293
2720.000000, 106.890, 33.7774
2760.000000, 106.935, 35.3392
2800.000000, 106.975, 37.1756
2850.000000, 107.048, 39.7497
2900.000000, 107.176, 42.3623
2950.000000, 107.357, 44.6672
3000.000000, 107.567, 46.5533
3040.000000, 107.711, 47.7801
3070.000000, 107.798, 48.6461
3110.000000, 107.904, 49.7946
3150.000000, 108.012, 50.8046
3200.000000, 108.121, 51.7195
3250.000000, 108.143, 52.3477
3300.000000, 108.056, 53.1300
3350.000000, 107.918, 54.4628
3400.000000, 107.797, 55.9650
3450.000000, 107.675, 57.0775
3500.000000, 107.458, 57.7265
3550.000000, 107.066, 58.4836
3600.000000, 106.513, 60.3954
3650.000000, 105.882, 64.1996
3700.000000, 105.349, 70.6744
3750.000000, 105.296, 79.3032
3820.000000, 106.063, 87.3261
3870.000000, 106.550, 88.1985
3950.000000, 106.589, 86.5313
4000.000000, 106.242, 86.3219
4060.000000, 105.700, 88.0327
4120.000000, 105.180, 91.1122
4180.000000, 104.684, 93.9214
4250.000000, 104.175, 96.3235
4310.000000, 103.882, 98.3053
4370.000000, 103.710, 100.0322
4440.000000, 103.615, 101.3154
4500.000000, 103.562, 101.6297
4550.000000, 103.487, 101.3122
4620.000000, 103.263, 100.2211
4680.000000, 102.911, 99.0964
4750.000000, 102.291, 98.2045
4820.000000, 101.488, 98.7189
4870.000000, 100.874, 100.5565
4940.000000, 100.122, 105.5545
5000.000000, 99.759, 111.6630
5080.000000, 99.891, 120.3902
5150.000000, 100.526, 126.1324
5220.000000, 101.358, 128.9083
5300.000000, 102.301, 129.1649
5380.000000, 103.131, 127.0352
5450.000000, 103.694, 123.5146
5520.000000, 104.033, 118.7802
5600.000000, 104.073, 112.7127
5700.000000, 103.626, 106.0438
5800.000000, 102.927, 101.9238
5900.000000, 102.300, 99.7582
6000.000000, 101.764, 98.3018
6080.000000, 101.368, 97.4317
6150.000000, 101.050, 96.8615
6220.000000, 100.768, 96.4167
6300.000000, 100.501, 95.8940
6400.000000, 100.227, 94.8601
6500.000000, 99.923, 93.2404
6600.000000, 99.491, 91.4551
6700.000000, 98.962, 90.1924
6800.000000, 98.461, 89.5639
6900.000000, 98.085, 89.2721
7000.000000, 97.826, 89.1688
7100.000000, 97.612, 89.0662
7200.000000, 97.419, 88.9093
7300.000000, 97.261, 88.6252
7400.000000, 97.153, 88.2060
7500.000000, 97.107, 87.5953
7620.000000, 97.163, 86.3087
7750.000000, 97.316, 83.5451
7880.000000, 97.275, 78.8358
8000.000000, 96.883, 73.2582
8120.000000, 96.133, 68.2395
8250.000000, 95.050, 65.3535
8380.000000, 93.976, 66.0787
8500.000000, 93.369, 69.4847
8620.000000, 93.345, 72.9294
8750.000000, 93.776, 73.5756
8850.000000, 94.154, 71.3354
9000.000000, 94.403, 64.8899
9120.000000, 94.203, 58.7271
9250.000000, 93.607, 52.4245
9380.000000, 92.718, 47.6188
9500.000000, 91.801, 45.4550
9620.000000, 90.992, 45.5133
9750.000000, 90.395, 47.1118
9880.000000, 90.193, 49.0276
10000.000000, 90.372, 49.8479
10150.000000, 90.898, 48.3906
10300.000000, 91.453, 43.7374
10440.000000, 91.773, 37.2408
10600.000000, 91.835, 28.5542
10750.000000, 91.611, 19.8490
10900.000000, 91.028, 11.0545
11060.000000, 89.905, 3.7075
11200.000000, 88.882, 1.5983
11380.000000, 88.620, 1.8408
11500.000000, 88.963, 0.1990
11720.000000, 89.113, -6.9072
11800.000000, 88.741, -10.3318
12060.000000, 85.266, -13.9501
12200.000000, 83.078, 8.4756
12410.000000, 84.892, 50.4910
12500.000000, 86.395, 53.1506
12650.000000, 88.229, 49.7724
12800.000000, 89.209, 43.5777
13150.000000, 89.753, 30.6345
13200.000000, 89.743, 28.9486
13400.000000, 89.530, 21.9655
13600.000000, 88.987, 14.5588
13800.000000, 88.127, 6.8896
14000.000000, 86.882, -1.0205
14300.000000, 83.894, -8.5415
14500.000000, 81.773, -6.8525
14750.000000, 80.807, -6.3353
15000.000000, 81.469, -26.3276
15250.000000, 81.457, -77.6778
15500.000000, 79.503, -161.6254
15750.000000, 75.716, 137.6680
16000.000000, 71.332, 126.0644
16250.000000, 70.357, 142.2266
16500.000000, 71.641, 149.9810
16750.000000, 72.863, 154.7365
17000.000000, 74.486, 156.1849
17250.000000, 75.689, 148.0364
17500.000000, 74.904, 133.0004
17750.000000, 71.369, 129.0056
18000.000000, 68.149, -177.8213
18250.000000, 70.206, -142.5531
18500.000000, 72.703, -139.7990
18750.000000, 74.244, -140.8350
19000.000000, 75.263, -142.6294
19250.000000, 75.686, -146.0743
19500.000000, 75.252, -149.0462
19750.000000, 74.255, -148.7264
20000.000000, 73.077, -145.6405
20300.000000, 71.442, -140.1023
20600.000000, 69.191, -134.2270
20900.000000, 65.666, -129.6683
21200.000000, 60.600, -129.5575
21400.000000, 56.478, -132.6566
21800.000000, 47.437, -130.5409
22000.000000, 43.188, -122.3313
22400.000000, 36.070, -94.7405
22700.000000, 31.055, -65.3759
23000.000000, 25.649, -28.5450
23300.000000, 20.704, -9.9845
23600.000000, 18.223, 9.0747
24000.000000, 17.920, 44.8937
